atomic number =   80
effective nuclear charge =   80
electron count =   79
net charge =    1
basis set = approximate basis set limit (UGBS)      
exchange correlation functional = PW91                
cutoff radius (picometer) =  300
number of shells =   50
prepared by = Thomas A. Manz      
prepared date = 2011                
magnetization =    1
density in atomic units:
0.78168453E+05
0.27734949E+03
0.77426903E+02
0.43828888E+02
0.19372009E+02
0.76528506E+01
0.39277265E+01
0.26050897E+01
0.18389180E+01
0.13101039E+01
0.91184080E+00
0.62499887E+00
0.43848446E+00
0.30623415E+00
0.21655545E+00
0.15411842E+00
0.11050615E+00
0.81397168E-01
0.60164925E-01
0.44870783E-01
0.33797976E-01
0.25653444E-01
0.19671341E-01
0.15190179E-01
0.11789561E-01
0.91967722E-02
0.72227316E-02
0.57343016E-02
0.45525609E-02
0.36236090E-02
0.29029550E-02
0.23307940E-02
0.18818801E-02
0.15219884E-02
0.12346426E-02
0.10076107E-02
0.82585390E-03
0.67777582E-03
0.55592024E-03
0.45806490E-03
0.37893810E-03
0.31292680E-03
0.25931204E-03
0.21543598E-03
0.17895110E-03
0.14902171E-03
0.12409373E-03
0.10342969E-03
0.86275373E-04
0.72115879E-04
