atomic number =   13
effective nuclear charge =   13
electron count =   11
net charge =    2
basis set = approximate basis set limit (UGBS)      
exchange correlation functional = PW91PW91            
cutoff radius (picometer) =  300
number of shells =   50
prepared by = Thomas A. Manz      
prepared date = July 2010           
magnetization =    1
density in atomic units:
0.30861600E+03
0.23106182E+02
0.93404160E+01
0.60928936E+01
0.37589152E+01
0.20712643E+01
0.11085232E+01
0.60525393E+00
0.32469559E+00
0.17830835E+00
0.99716999E-01
0.58563460E-01
0.38415175E-01
0.27043670E-01
0.20509440E-01
0.16334154E-01
0.13395592E-01
0.11256819E-01
0.94711902E-02
0.79639331E-02
0.66816676E-02
0.55826702E-02
0.46549025E-02
0.38677235E-02
0.32010775E-02
0.26414252E-02
0.21782792E-02
0.18032916E-02
0.14866020E-02
0.12236491E-02
0.10095433E-02
0.83202001E-03
0.68727531E-03
0.56714838E-03
0.46818124E-03
0.38774413E-03
0.32178656E-03
0.26685686E-03
0.22081246E-03
0.18321772E-03
0.15242053E-03
0.12647422E-03
0.10519256E-03
0.87636909E-04
0.72938994E-04
0.60871200E-04
0.50764829E-04
0.42349464E-04
0.35337416E-04
0.29534644E-04
