atomic number =   79
effective nuclear charge =   79
electron count =   73
net charge =    6
basis set = approximate basis set limit (UGBS)      
exchange correlation functional = PW91PW91            
cutoff radius (picometer) =  300
number of shells =   50
prepared by = Thomas A. Manz      
prepared date = July 2010           
magnetization =    5
density in atomic units:
0.75138133E+05
0.27469266E+03
0.74633659E+02
0.42922096E+02
0.19707340E+02
0.78619866E+01
0.38715672E+01
0.24270053E+01
0.16234018E+01
0.10965279E+01
0.71661639E+00
0.45514482E+00
0.29445192E+00
0.18800460E+00
0.12129187E+00
0.78812100E-01
0.51754791E-01
0.35314441E-01
0.24334494E-01
0.17056948E-01
0.12173010E-01
0.88156871E-02
0.64935889E-02
0.48442548E-02
0.36494210E-02
0.27751930E-02
0.21321801E-02
0.16613039E-02
0.12962569E-02
0.10149309E-02
0.80025871E-03
0.63223933E-03
0.50224498E-03
0.39937327E-03
0.31826901E-03
0.25504475E-03
0.20514120E-03
0.16508391E-03
0.13261929E-03
0.10692844E-03
0.86493761E-04
0.69772745E-04
0.56462268E-04
0.45805722E-04
0.37128430E-04
0.30176350E-04
0.24516276E-04
0.19937228E-04
0.16213660E-04
0.13193578E-04
