atomic number =   42
effective nuclear charge =   42
electron count =   38
net charge =    4
basis set = approximate basis set limit (UGBS)      
exchange correlation functional = PW91PW91            
cutoff radius (picometer) =  300
number of shells =   50
prepared by = Thomas A. Manz      
prepared date = July 2010           
magnetization =    2
density in atomic units:
0.97973457E+04
0.11689412E+03
0.43667137E+02
0.22809626E+02
0.94856386E+01
0.35650682E+01
0.17683063E+01
0.12294559E+01
0.95282948E+00
0.73742867E+00
0.54586500E+00
0.38498577E+00
0.27019638E+00
0.18452305E+00
0.12475508E+00
0.83042003E-01
0.55147361E-01
0.37288427E-01
0.25320070E-01
0.17144300E-01
0.11910440E-01
0.83578769E-02
0.59396476E-02
0.43670363E-02
0.32068233E-02
0.24439627E-02
0.18604724E-02
0.14602059E-02
0.11532251E-02
0.90832874E-03
0.72803180E-03
0.58599532E-03
0.47724589E-03
0.39016994E-03
0.31812181E-03
0.26414514E-03
0.21842614E-03
0.18070504E-03
0.15023055E-03
0.12483849E-03
0.10515506E-03
0.88188572E-04
0.74055068E-04
0.62691899E-04
0.52881474E-04
0.44784349E-04
0.37932263E-04
0.32262840E-04
0.27368667E-04
0.23339389E-04
