atomic number =   94
effective nuclear charge =   94
electron count =   95
net charge =   -1
basis set = approximate basis set limit (UGBS)      
exchange correlation functional = PW91                
cutoff radius (picometer) =  300
number of shells =   50
prepared by = Thomas A. Manz      
prepared date = 2012                
magnetization =    7
density in atomic units:
0.12788581E+06
0.31907269E+03
0.11662764E+03
0.41115185E+02
0.15033515E+02
0.85457039E+01
0.55068512E+01
0.34464817E+01
0.21035526E+01
0.13441776E+01
0.90732455E+00
0.64561093E+00
0.48574540E+00
0.36781925E+00
0.27976519E+00
0.21123894E+00
0.15823106E+00
0.11973495E+00
0.89923710E-01
0.67526221E-01
0.50992403E-01
0.38721986E-01
0.29739907E-01
0.23126543E-01
0.18193979E-01
0.14545245E-01
0.11834975E-01
0.98508922E-02
0.83128829E-02
0.71194768E-02
0.62021888E-02
0.54686721E-02
0.48827464E-02
0.43963715E-02
0.39868741E-02
0.36436745E-02
0.33463445E-02
0.30819846E-02
0.28429476E-02
0.26296643E-02
0.24379937E-02
0.22590472E-02
0.20958078E-02
0.19458495E-02
0.18054396E-02
0.16759929E-02
0.15545179E-02
0.14412493E-02
0.13354812E-02
0.12376572E-02
