atomic number =   83
effective nuclear charge =   83
electron count =   78
net charge =    5
basis set = approximate basis set limit (UGBS)      
exchange correlation functional = PW91                
cutoff radius (picometer) =  300
number of shells =   50
prepared by = Thomas A. Manz      
prepared date = 2012                
magnetization =    0
density in atomic units:
0.87682820E+05
0.28536691E+03
0.86304245E+02
0.45417454E+02
0.18117500E+02
0.72340817E+01
0.41320286E+01
0.28907135E+01
0.20214069E+01
0.13784958E+01
0.90049499E+00
0.57073045E+00
0.36763340E+00
0.23212035E+00
0.14641380E+00
0.91537029E-01
0.56705493E-01
0.35898477E-01
0.22456091E-01
0.13999915E-01
0.87208357E-02
0.54118927E-02
0.33653886E-02
0.20895454E-02
0.12921561E-02
0.79740258E-03
0.49286627E-03
0.30816166E-03
0.19062280E-03
0.11707647E-03
0.71953429E-04
0.43761738E-04
0.26512413E-04
0.15833588E-04
0.93392300E-05
0.54812058E-05
0.31868813E-05
0.18114592E-05
0.10194233E-05
0.57222576E-06
0.32321702E-06
0.17970372E-06
0.10061216E-06
0.57141811E-07
0.32344335E-07
0.18760590E-07
0.11110521E-07
0.66791435E-08
0.42258392E-08
0.32317842E-08
