atomic number =   83
effective nuclear charge =   83
electron count =   84
net charge =   -1
basis set = approximate basis set limit (UGBS)      
exchange correlation functional = PW91                
cutoff radius (picometer) =  300
number of shells =   50
prepared by = Thomas A. Manz      
prepared date = 2012                
magnetization =    2
density in atomic units:
0.87698797E+05
0.28540121E+03
0.86317917E+02
0.45393787E+02
0.18144974E+02
0.72947569E+01
0.41566982E+01
0.28724859E+01
0.19848950E+01
0.13491733E+01
0.89245617E+00
0.58655167E+00
0.40196082E+00
0.27943930E+00
0.20080477E+00
0.14829086E+00
0.11243114E+00
0.88548943E-01
0.70795208E-01
0.57506830E-01
0.47345333E-01
0.39349180E-01
0.33010151E-01
0.27853528E-01
0.23587789E-01
0.20036519E-01
0.17084621E-01
0.14660410E-01
0.12567410E-01
0.10780414E-01
0.92772273E-02
0.79853004E-02
0.68906466E-02
0.59440723E-02
0.51303203E-02
0.44396771E-02
0.38476842E-02
0.33323579E-02
0.28804492E-02
0.24945014E-02
0.21637511E-02
0.18721860E-02
0.16223360E-02
0.14071037E-02
0.12190805E-02
0.10574670E-02
0.91634120E-03
0.79387322E-03
0.68764907E-03
0.59626717E-03
