atomic number =   45
effective nuclear charge =   45
electron count =   44
net charge =    1
basis set = approximate basis set limit (UGBS)      
exchange correlation functional = PW91PW91            
cutoff radius (picometer) =  300
number of shells =   50
prepared by = Thomas A. Manz      
prepared date = July 2010           
magnetization =    2
density in atomic units:
0.12236748E+05
0.12615587E+03
0.51185692E+02
0.22685251E+02
0.81833630E+01
0.32780924E+01
0.21039491E+01
0.16881671E+01
0.13344227E+01
0.10138674E+01
0.73179692E+00
0.51371580E+00
0.36460039E+00
0.25565335E+00
0.18083560E+00
0.12850401E+00
0.91420621E-01
0.66835813E-01
0.48777558E-01
0.36081538E-01
0.26797291E-01
0.20081427E-01
0.15238455E-01
0.11563075E-01
0.88654356E-02
0.67744437E-02
0.52401465E-02
0.40819691E-02
0.31776114E-02
0.24876948E-02
0.19561856E-02
0.15421270E-02
0.12217639E-02
0.96997141E-03
0.77464059E-03
0.62063592E-03
0.50132710E-03
0.40595885E-03
0.32815067E-03
0.26705849E-03
0.21763299E-03
0.17721044E-03
0.14495270E-03
0.11867170E-03
0.97222284E-04
0.79727346E-04
0.65304252E-04
0.53427309E-04
0.43737542E-04
0.35825909E-04
