atomic number =   42
effective nuclear charge =   42
electron count =   39
net charge =    3
basis set = approximate basis set limit (UGBS)      
exchange correlation functional = PW91PW91            
cutoff radius (picometer) =  300
number of shells =   50
prepared by = Thomas A. Manz      
prepared date = July 2010           
magnetization =    3
density in atomic units:
0.97965068E+04
0.11699861E+03
0.43698822E+02
0.22817696E+02
0.94889336E+01
0.35655265E+01
0.17718260E+01
0.12378552E+01
0.96998793E+00
0.75980711E+00
0.57304049E+00
0.41204065E+00
0.29568845E+00
0.20752369E+00
0.14435853E+00
0.98864831E-01
0.68084769E-01
0.47598802E-01
0.33661332E-01
0.23532232E-01
0.16988475E-01
0.12315514E-01
0.89637786E-02
0.67891264E-02
0.50632181E-02
0.39497265E-02
0.30362706E-02
0.24119583E-02
0.19232498E-02
0.15188385E-02
0.12230749E-02
0.98787446E-03
0.80824300E-03
0.66364615E-03
0.54170447E-03
0.45262670E-03
0.37512695E-03
0.31077646E-03
0.25922921E-03
0.21587001E-03
0.18275180E-03
0.15373324E-03
0.12915007E-03
0.10942265E-03
0.92197406E-04
0.78119599E-04
0.66104170E-04
0.56197179E-04
0.47676716E-04
0.40659565E-04
