atomic number =   44
effective nuclear charge =   44
electron count =   45
net charge =   -1
basis set = approximate basis set limit (UGBS)      
exchange correlation functional = PW91PW91            
cutoff radius (picometer) =  300
number of shells =   50
prepared by = Thomas A. Manz      
prepared date = July 2010           
magnetization =    3
density in atomic units:
0.11382864E+05
0.12279523E+03
0.48835552E+02
0.22913898E+02
0.86147633E+01
0.33118708E+01
0.19502393E+01
0.15157744E+01
0.12066302E+01
0.92867941E+00
0.68316817E+00
0.48595041E+00
0.34989414E+00
0.25012282E+00
0.18075204E+00
0.13162155E+00
0.97462058E-01
0.74397169E-01
0.57676159E-01
0.45254696E-01
0.36286786E-01
0.29456751E-01
0.24208650E-01
0.20210123E-01
0.16932864E-01
0.14364908E-01
0.12224603E-01
0.10522994E-01
0.90684360E-02
0.78188805E-02
0.67801992E-02
0.58860597E-02
0.51292409E-02
0.44710780E-02
0.38971510E-02
0.34115370E-02
0.29873399E-02
0.26138599E-02
0.22841990E-02
0.19982965E-02
0.17521576E-02
0.15317500E-02
0.13400791E-02
0.11734529E-02
0.10258262E-02
0.89769886E-03
0.78458310E-03
0.68561808E-03
0.59879071E-03
0.52354345E-03
