atomic number =   82
effective nuclear charge =   82
electron count =   77
net charge =    5
basis set = approximate basis set limit (UGBS)      
exchange correlation functional = PW91                
cutoff radius (picometer) =  300
number of shells =   50
prepared by = Thomas A. Manz      
prepared date = 2012                
magnetization =    1
density in atomic units:
0.84439641E+05
0.28273697E+03
0.83255882E+02
0.45032150E+02
0.18563690E+02
0.73370881E+01
0.40264273E+01
0.27668796E+01
0.19348856E+01
0.13302799E+01
0.87759101E+00
0.56227130E+00
0.36569542E+00
0.23313136E+00
0.14854677E+00
0.93879275E-01
0.58767162E-01
0.37592832E-01
0.23751790E-01
0.14975217E-01
0.94263051E-02
0.59164362E-02
0.37241711E-02
0.23386884E-02
0.14649280E-02
0.91455335E-03
0.57248917E-03
0.36215602E-03
0.22671485E-03
0.14098213E-03
0.87724031E-04
0.54033822E-04
0.33142456E-04
0.20085557E-04
0.12036211E-04
0.71811110E-05
0.42489587E-05
0.24852518E-05
0.14311861E-05
0.82412890E-06
0.47772886E-06
0.27318410E-06
0.15813612E-06
0.92331398E-07
0.53995382E-07
0.32002404E-07
0.19212447E-07
0.11662294E-07
0.72250801E-08
0.45902979E-08
