atomic number =   82
effective nuclear charge =   82
electron count =   79
net charge =    3
basis set = approximate basis set limit (UGBS)      
exchange correlation functional = PW91                
cutoff radius (picometer) =  300
number of shells =   50
prepared by = Thomas A. Manz      
prepared date = 2012                
magnetization =    1
density in atomic units:
0.84447797E+05
0.28272946E+03
0.83272514E+02
0.45039913E+02
0.18571747E+02
0.73560281E+01
0.40470734E+01
0.27868373E+01
0.19600214E+01
0.13626006E+01
0.91767704E+00
0.60671127E+00
0.41113687E+00
0.27679917E+00
0.18845281E+00
0.12883450E+00
0.88462949E-01
0.62371101E-01
0.43945558E-01
0.31123456E-01
0.22177177E-01
0.15852587E-01
0.11404187E-01
0.82259392E-02
0.59346785E-02
0.42835064E-02
0.30998979E-02
0.22633397E-02
0.16430378E-02
0.11897621E-02
0.86445926E-03
0.62627235E-03
0.45472302E-03
0.32905579E-03
0.23776414E-03
0.17245566E-03
0.12525164E-03
0.90675036E-04
0.65183318E-04
0.46929850E-04
0.33831682E-04
0.24202725E-04
0.17334385E-04
0.12413117E-04
0.88457373E-05
0.63305210E-05
0.45223451E-05
0.32175058E-05
0.22872075E-05
0.16206437E-05
