atomic number =   16
effective nuclear charge =   16
electron count =   11
net charge =    5
basis set = approximate basis set limit (UGBS)      
exchange correlation functional = PW91PW91            
cutoff radius (picometer) =  300
number of shells =   50
prepared by = Thomas A. Manz      
prepared date = July 2010           
magnetization =    1
density in atomic units:
0.52033234E+03
0.30476086E+02
0.15341610E+02
0.81593027E+01
0.38520443E+01
0.15965950E+01
0.66215509E+00
0.30416805E+00
0.15334547E+00
0.91012731E-01
0.61118841E-01
0.44142291E-01
0.33423439E-01
0.25133185E-01
0.18801508E-01
0.13862900E-01
0.10099766E-01
0.74341549E-02
0.54269540E-02
0.39644637E-02
0.29091176E-02
0.21421802E-02
0.15888239E-02
0.11828404E-02
0.88186428E-03
0.65831776E-03
0.49296039E-03
0.37223872E-03
0.27969715E-03
0.20976238E-03
0.15783076E-03
0.11846266E-03
0.89112305E-04
0.66861183E-04
0.50114377E-04
0.37696824E-04
0.28384355E-04
0.21307784E-04
0.15904190E-04
0.11904805E-04
0.89200839E-05
0.66499747E-05
0.49635510E-05
0.36862634E-05
0.27205278E-05
0.20464940E-05
0.15361347E-05
0.11573135E-05
0.87268398E-06
0.66000439E-06
