atomic number =   82
effective nuclear charge =   82
electron count =   78
net charge =    4
basis set = approximate basis set limit (UGBS)      
exchange correlation functional = PW91                
cutoff radius (picometer) =  300
number of shells =   50
prepared by = Thomas A. Manz      
prepared date = 2012                
magnetization =    0
density in atomic units:
0.84438438E+05
0.28271585E+03
0.83268768E+02
0.45051132E+02
0.18562334E+02
0.73341599E+01
0.40397129E+01
0.27959197E+01
0.19754726E+01
0.13745767E+01
0.92109877E+00
0.60101610E+00
0.39875841E+00
0.26014975E+00
0.16993268E+00
0.11029093E+00
0.71124852E-01
0.46856001E-01
0.30575257E-01
0.19920647E-01
0.12989631E-01
0.84555121E-02
0.55231936E-02
0.36072826E-02
0.23500172E-02
0.15289471E-02
0.99647848E-03
0.65625092E-03
0.42820969E-03
0.27778180E-03
0.18043374E-03
0.11632555E-03
0.74931151E-04
0.47886526E-04
0.30475214E-04
0.19458195E-04
0.12432510E-04
0.78883577E-05
0.49456758E-05
0.30994170E-05
0.19552479E-05
0.12240397E-05
0.76831719E-06
0.48275922E-06
0.30163494E-06
0.18861422E-06
0.11669693E-06
0.71607758E-07
0.43268557E-07
0.25822835E-07
