atomic number =    1
effective nuclear charge =    1
electron count =    3
net charge =   -2
basis set = approximate basis set limit (UGBS)      
exchange correlation functional = PW91PW91            
cutoff radius (picometer) =  300
number of shells =   50
prepared by = Thomas A. Manz      
prepared date = April 2010          
magnetization =    1
density in atomic units:
0.32782370E+00
0.26377141E+00
0.21452841E+00
0.17389187E+00
0.14151838E+00
0.11365546E+00
0.92072383E-01
0.75741298E-01
0.62295046E-01
0.51649861E-01
0.42724855E-01
0.35360280E-01
0.29716086E-01
0.24938103E-01
0.21045828E-01
0.17773166E-01
0.15032623E-01
0.12850151E-01
0.10972941E-01
0.93859984E-02
0.80442997E-02
0.68977885E-02
0.59253210E-02
0.50888448E-02
0.43652793E-02
0.37412115E-02
0.32087085E-02
0.27631030E-02
0.23740502E-02
0.20403999E-02
0.17598786E-02
0.15203274E-02
0.13194642E-02
0.11483680E-02
0.10038977E-02
0.88391866E-03
0.78352226E-03
0.69845247E-03
0.62604051E-03
0.56612928E-03
0.51656965E-03
0.47456555E-03
0.44007070E-03
0.41170820E-03
0.38827799E-03
0.36928561E-03
0.35380412E-03
0.34134786E-03
0.33144304E-03
0.32372549E-03
