atomic number =   45
effective nuclear charge =   45
electron count =   41
net charge =    4
basis set = approximate basis set limit (UGBS)      
exchange correlation functional = PW91PW91            
cutoff radius (picometer) =  300
number of shells =   50
prepared by = Thomas A. Manz      
prepared date = July 2010           
magnetization =    5
density in atomic units:
0.12238232E+05
0.12581625E+03
0.51158043E+02
0.22681166E+02
0.81785421E+01
0.32733750E+01
0.20790982E+01
0.16326617E+01
0.12569516E+01
0.92222428E+00
0.63847363E+00
0.42450801E+00
0.28446910E+00
0.18711978E+00
0.12354924E+00
0.81579261E-01
0.54050896E-01
0.36945313E-01
0.25364615E-01
0.17644908E-01
0.12470602E-01
0.89370580E-02
0.65173162E-02
0.48183245E-02
0.36019888E-02
0.27219821E-02
0.20811360E-02
0.16157943E-02
0.12575150E-02
0.98291342E-03
0.77415915E-03
0.61117171E-03
0.48524348E-03
0.38567747E-03
0.30726453E-03
0.24612388E-03
0.19788009E-03
0.15915977E-03
0.12777267E-03
0.10295649E-03
0.83223051E-04
0.67077752E-04
0.54234795E-04
0.43949229E-04
0.35592599E-04
0.28906163E-04
0.23466346E-04
0.19070281E-04
0.15486115E-04
0.12583337E-04
