atomic number =   72
effective nuclear charge =   72
electron count =   72
net charge =    0
basis set = approximate basis set limit (UGBS)      
exchange correlation functional = PW91PW91            
cutoff radius (picometer) =  300
number of shells =   50
prepared by = Thomas A. Manz      
prepared date = July 2010           
magnetization =    2
density in atomic units:
0.55950570E+05
0.25243359E+03
0.60390419E+02
0.33723938E+02
0.19911903E+02
0.93113794E+01
0.44205141E+01
0.24740438E+01
0.15492567E+01
0.10537511E+01
0.72925454E+00
0.50342262E+00
0.35582474E+00
0.24961478E+00
0.17647487E+00
0.12514541E+00
0.89946002E-01
0.66835426E-01
0.50694779E-01
0.39178025E-01
0.31256922E-01
0.25442556E-01
0.21075688E-01
0.17860150E-01
0.15190668E-01
0.13135850E-01
0.11359709E-01
0.99337082E-02
0.86815516E-02
0.75637805E-02
0.66156602E-02
0.57780743E-02
0.50551281E-02
0.44139479E-02
0.38429636E-02
0.33578123E-02
0.29272495E-02
0.25456001E-02
0.22088606E-02
0.19159135E-02
0.16655744E-02
0.14417329E-02
0.12478379E-02
0.10808748E-02
0.93379087E-03
0.80748415E-03
0.69701532E-03
0.60153252E-03
0.51858526E-03
0.44763225E-03
