atomic number =   12
effective nuclear charge =   12
electron count =   12
net charge =    0
basis set = approximate basis set limit (UGBS)      
exchange correlation functional = PW91PW91            
cutoff radius (picometer) =  300
number of shells =   50
prepared by = Thomas A. Manz      
prepared date = July 2010           
magnetization =    0
density in atomic units:
0.25511858E+03
0.21658003E+02
0.75853767E+01
0.50649028E+01
0.33858783E+01
0.20435622E+01
0.11947798E+01
0.70677894E+00
0.40964478E+00
0.24036320E+00
0.14112101E+00
0.84654786E-01
0.54978833E-01
0.37506569E-01
0.27475551E-01
0.21444885E-01
0.17666725E-01
0.15285366E-01
0.13525407E-01
0.12144596E-01
0.10985446E-01
0.99539906E-02
0.90184603E-02
0.81472080E-02
0.73287385E-02
0.65626698E-02
0.58556283E-02
0.52195084E-02
0.46245097E-02
0.40802215E-02
0.35937063E-02
0.31535556E-02
0.27639307E-02
0.24143648E-02
0.21045546E-02
0.18348717E-02
0.15990486E-02
0.13903737E-02
0.12048390E-02
0.10448139E-02
0.90656703E-03
0.78396371E-03
0.67853811E-03
0.58735913E-03
0.50765410E-03
0.43909601E-03
0.37925720E-03
0.32739356E-03
0.28247113E-03
0.24394121E-03
