atomic number =   15
effective nuclear charge =   15
electron count =   10
net charge =    5
basis set = approximate basis set limit (UGBS)      
exchange correlation functional = PW91PW91            
cutoff radius (picometer) =  300
number of shells =   50
prepared by = Thomas A. Manz      
prepared date = July 2010           
magnetization =    0
density in atomic units:
0.43902939E+03
0.27498455E+02
0.13265240E+02
0.76437869E+01
0.39670160E+01
0.18108053E+01
0.80245596E+00
0.36513892E+00
0.16016865E+00
0.70325337E-01
0.30019766E-01
0.12507373E-01
0.55199075E-02
0.23831329E-02
0.10283967E-02
0.43798896E-03
0.18166406E-03
0.78270103E-04
0.32864809E-04
0.13570871E-04
0.54896232E-05
0.21500844E-05
0.80902714E-06
0.27323077E-06
0.12095802E-06
0.59279891E-07
0.29128937E-07
0.17233258E-07
0.96979962E-08
0.52562217E-08
0.32134271E-08
0.17901984E-08
0.88607016E-09
0.40705891E-09
0.18215567E-09
0.79252223E-10
0.33621581E-10
0.13775822E-10
0.54363892E-11
0.21115440E-11
0.80496840E-12
0.29301184E-12
0.10522743E-12
0.38075981E-13
0.12583881E-13
0.41074965E-14
0.12955338E-14
0.40007484E-15
0.12676457E-15
0.38168287E-16
