atomic number =   16
effective nuclear charge =   16
electron count =   13
net charge =    3
basis set = approximate basis set limit (UGBS)      
exchange correlation functional = PW91PW91            
cutoff radius (picometer) =  300
number of shells =   50
prepared by = Thomas A. Manz      
prepared date = July 2010           
magnetization =    1
density in atomic units:
0.52160406E+03
0.30626665E+02
0.15496556E+02
0.82250032E+01
0.38666782E+01
0.16083413E+01
0.69255316E+00
0.35299003E+00
0.21442930E+00
0.15673022E+00
0.12532793E+00
0.10268696E+00
0.84693789E-01
0.68364985E-01
0.54422919E-01
0.42550996E-01
0.32819152E-01
0.25451325E-01
0.19556608E-01
0.15007660E-01
0.11541934E-01
0.88942470E-02
0.68928553E-02
0.53592813E-02
0.41752327E-02
0.32603303E-02
0.25572754E-02
0.20241509E-02
0.15996180E-02
0.12656535E-02
0.10068754E-02
0.80180122E-03
0.64158422E-03
0.51377318E-03
0.41231237E-03
0.33266883E-03
0.26937347E-03
0.21827388E-03
0.17670594E-03
0.14370846E-03
0.11742338E-03
0.95806805E-04
0.78466437E-04
0.64502470E-04
0.53071693E-04
0.43837568E-04
0.36256792E-04
0.30039513E-04
0.24925061E-04
0.20740787E-04
