atomic number =   78
effective nuclear charge =   78
electron count =   73
net charge =    5
basis set = approximate basis set limit (UGBS)      
exchange correlation functional = PW91PW91            
cutoff radius (picometer) =  300
number of shells =   50
prepared by = Thomas A. Manz      
prepared date = July 2010           
magnetization =    5
density in atomic units:
0.72179141E+05
0.27182986E+03
0.72051949E+02
0.41959450E+02
0.19982861E+02
0.80829153E+01
0.39091034E+01
0.24103494E+01
0.16137159E+01
0.11054457E+01
0.73807502E+00
0.48070177E+00
0.31868884E+00
0.20854539E+00
0.13762373E+00
0.91211721E-01
0.60893916E-01
0.42056892E-01
0.29254058E-01
0.20656010E-01
0.14834093E-01
0.10808445E-01
0.80133369E-02
0.60215848E-02
0.45737042E-02
0.35092966E-02
0.27219679E-02
0.21413830E-02
0.16876635E-02
0.13348765E-02
0.10631158E-02
0.84816094E-03
0.68001833E-03
0.54555619E-03
0.43852118E-03
0.35424938E-03
0.28712893E-03
0.23281503E-03
0.18850614E-03
0.15323515E-03
0.12502044E-03
0.10178633E-03
0.83171719E-04
0.68165333E-04
0.55866654E-04
0.45954326E-04
0.37839705E-04
0.31221472E-04
0.25823172E-04
0.21408558E-04
