atomic number =   77
effective nuclear charge =   77
electron count =   78
net charge =   -1
basis set = approximate basis set limit (UGBS)      
exchange correlation functional = PW91PW91            
cutoff radius (picometer) =  500
number of shells =  100
prepared by = Thomas A. Manz      
prepared date = July 2010           
magnetization =    2
density in atomic units:
0.47977900E+06
0.54548383E+03
0.11832876E+03
0.54390614E+02
0.33574245E+02
0.18131578E+02
0.90405893E+01
0.47153134E+01
0.29283950E+01
0.20374629E+01
0.14924172E+01
0.11277235E+01
0.84371179E+00
0.62510848E+00
0.47187763E+00
0.35828352E+00
0.27085072E+00
0.20823792E+00
0.16207717E+00
0.12704502E+00
0.10139249E+00
0.82384914E-01
0.67303345E-01
0.55460442E-01
0.46272088E-01
0.38836226E-01
0.32794125E-01
0.27925359E-01
0.23839863E-01
0.20460468E-01
0.17670754E-01
0.15253673E-01
0.13234334E-01
0.11515338E-01
0.10030667E-01
0.87425243E-02
0.76234327E-02
0.66563962E-02
0.58293645E-02
0.51046261E-02
0.44702557E-02
0.39200867E-02
0.34362148E-02
0.30211811E-02
0.26572188E-02
0.23293963E-02
0.20448808E-02
0.18010435E-02
0.15828608E-02
0.13913038E-02
0.12228751E-02
0.10739184E-02
0.94469008E-03
0.83192100E-03
0.73221861E-03
0.64416416E-03
0.56607090E-03
0.49757469E-03
0.43759763E-03
0.38499004E-03
0.33869114E-03
0.29785756E-03
0.26212767E-03
0.23059445E-03
0.20275214E-03
0.17864854E-03
0.15739401E-03
0.13844349E-03
0.12178261E-03
0.10709320E-03
0.94299932E-04
0.83044033E-04
0.73103765E-04
0.64405976E-04
0.56696823E-04
0.49899998E-04
0.43934808E-04
0.38688075E-04
0.34083023E-04
0.30057119E-04
0.26485866E-04
0.23322002E-04
0.20528963E-04
0.18063773E-04
0.15910566E-04
0.14020039E-04
0.12348814E-04
0.10873977E-04
0.95607693E-05
0.84039802E-05
0.73992919E-05
0.65123136E-05
0.57319958E-05
0.50430290E-05
0.44346921E-05
0.38931089E-05
0.34185171E-05
0.29971709E-05
0.26296664E-05
0.23076441E-05
