atomic number =   45
effective nuclear charge =   45
electron count =   39
net charge =    6
basis set = approximate basis set limit (UGBS)      
exchange correlation functional = PW91PW91            
cutoff radius (picometer) =  300
number of shells =   50
prepared by = Thomas A. Manz      
prepared date = July 2010           
magnetization =    3
density in atomic units:
0.12240471E+05
0.12544823E+03
0.51076206E+02
0.22663485E+02
0.81687250E+01
0.32503376E+01
0.20272157E+01
0.15588452E+01
0.11641561E+01
0.82679880E+00
0.54753584E+00
0.34725955E+00
0.22124781E+00
0.13752982E+00
0.85943468E-01
0.53938489E-01
0.33797663E-01
0.22082303E-01
0.14440738E-01
0.97331014E-02
0.66273063E-02
0.46209260E-02
0.33164120E-02
0.23886962E-02
0.17707327E-02
0.13075670E-02
0.99321036E-03
0.76105219E-03
0.58543734E-03
0.45623441E-03
0.35664215E-03
0.27961773E-03
0.21993413E-03
0.17317412E-03
0.13732672E-03
0.10862640E-03
0.86783344E-04
0.69388640E-04
0.55118002E-04
0.44051587E-04
0.35095269E-04
0.27911365E-04
0.22277558E-04
0.17746341E-04
0.14193612E-04
0.11371851E-04
0.90760705E-05
0.72414196E-05
0.57712937E-05
0.45968163E-05
