atomic number =   78
effective nuclear charge =   78
electron count =   78
net charge =    0
basis set = approximate basis set limit (UGBS)      
exchange correlation functional = PW91PW91            
cutoff radius (picometer) =  500
number of shells =  100
prepared by = Thomas A. Manz      
prepared date = July 2010           
magnetization =    2
density in atomic units:
0.49984300E+06
0.55621198E+03
0.11890212E+03
0.56799854E+02
0.34030525E+02
0.17853579E+02
0.87784395E+01
0.46248307E+01
0.29426925E+01
0.20930285E+01
0.15520084E+01
0.11806650E+01
0.88590062E+00
0.65668035E+00
0.49566177E+00
0.37511051E+00
0.28229874E+00
0.21553850E+00
0.16600922E+00
0.12854266E+00
0.10093979E+00
0.80655202E-01
0.64559907E-01
0.51947616E-01
0.42291939E-01
0.34550346E-01
0.28353928E-01
0.23434443E-01
0.19394804E-01
0.16121816E-01
0.13505177E-01
0.11267919E-01
0.94675319E-02
0.79748454E-02
0.67175222E-02
0.56656245E-02
0.47785249E-02
0.40359250E-02
0.34221036E-02
0.29032910E-02
0.24613384E-02
0.20935903E-02
0.17803831E-02
0.15191276E-02
0.12987376E-02
0.11061023E-02
0.94391295E-03
0.80997177E-03
0.69330033E-03
0.59401343E-03
0.50924357E-03
0.43639925E-03
0.37485510E-03
0.32261474E-03
0.27762339E-03
0.23892097E-03
0.20541575E-03
0.17679117E-03
0.15233051E-03
0.13132504E-03
0.11330011E-03
0.97707205E-04
0.84358369E-04
0.72810391E-04
0.62799365E-04
0.54323536E-04
0.46992613E-04
0.40568248E-04
0.35010380E-04
0.30191217E-04
0.26062375E-04
0.22485441E-04
0.19389958E-04
0.16743701E-04
0.14437199E-04
0.12445200E-04
0.10727511E-04
0.92362889E-05
0.79501269E-05
0.68413337E-05
0.58650367E-05
0.50097519E-05
0.42831348E-05
0.36581719E-05
0.31297934E-05
0.26766788E-05
0.22896247E-05
0.19593747E-05
0.16868655E-05
0.14504990E-05
0.12485505E-05
0.10738877E-05
0.92400819E-06
0.79508521E-06
0.68348083E-06
0.58744968E-06
0.50473858E-06
0.43374465E-06
0.37191083E-06
0.31911026E-06
