atomic number =   82
effective nuclear charge =   82
electron count =   80
net charge =    2
basis set = approximate basis set limit (UGBS)      
exchange correlation functional = PW91                
cutoff radius (picometer) =  300
number of shells =   50
prepared by = Thomas A. Manz      
prepared date = 2012                
magnetization =    0
density in atomic units:
0.84455273E+05
0.28274167E+03
0.83274811E+02
0.45030399E+02
0.18579191E+02
0.73734012E+01
0.40524778E+01
0.27787642E+01
0.19465677E+01
0.13517141E+01
0.91354692E+00
0.60999143E+00
0.42005211E+00
0.28957847E+00
0.20322560E+00
0.14413346E+00
0.10324347E+00
0.76027237E-01
0.56120086E-01
0.41697156E-01
0.31178977E-01
0.23389135E-01
0.17642759E-01
0.13333449E-01
0.10073235E-01
0.76078880E-02
0.57557775E-02
0.43852688E-02
0.33227291E-02
0.25114063E-02
0.19031753E-02
0.14384420E-02
0.10893086E-02
0.82245941E-03
0.62019698E-03
0.46918087E-03
0.35534971E-03
0.26841948E-03
0.20165778E-03
0.15180922E-03
0.11444552E-03
0.85739921E-04
0.64333712E-04
0.48296861E-04
0.36124471E-04
0.27044725E-04
0.20199188E-04
0.15058537E-04
0.11196972E-04
0.83351615E-05
