atomic number =   45
effective nuclear charge =   45
electron count =   38
net charge =    7
basis set = approximate basis set limit (UGBS)      
exchange correlation functional = PW91PW91            
cutoff radius (picometer) =  300
number of shells =   50
prepared by = Thomas A. Manz      
prepared date = July 2010           
magnetization =    2
density in atomic units:
0.12242088E+05
0.12522488E+03
0.51012825E+02
0.22649836E+02
0.81614542E+01
0.32311628E+01
0.19891397E+01
0.15118152E+01
0.11071002E+01
0.77188307E+00
0.49674660E+00
0.30668139E+00
0.18952008E+00
0.11360683E+00
0.68582304E-01
0.41763615E-01
0.25122195E-01
0.15895892E-01
0.99531868E-02
0.65656658E-02
0.43035056E-02
0.29219214E-02
0.20745504E-02
0.14435971E-02
0.10654117E-02
0.75866847E-03
0.57295751E-03
0.42982833E-03
0.32420512E-03
0.25209022E-03
0.19467599E-03
0.15111963E-03
0.11706007E-03
0.90785346E-04
0.71709794E-04
0.55590597E-04
0.44159926E-04
0.35174500E-04
0.27665634E-04
0.22071294E-04
0.17348319E-04
0.13698684E-04
0.10944806E-04
0.86797436E-05
0.69608559E-05
0.55696146E-05
0.44696289E-05
0.35594551E-05
0.28228344E-05
0.22284976E-05
