atomic number =   40
effective nuclear charge =   40
electron count =   37
net charge =    3
basis set = approximate basis set limit (UGBS)      
exchange correlation functional = PW91                
cutoff radius (picometer) =  400
number of shells =   75
prepared by = Thomas A. Manz      
prepared date = 2011                
magnetization =    1
density in atomic units:
0.83719668E+04
0.16145529E+03
0.46665039E+02
0.29087221E+02
0.16079325E+02
0.72917008E+01
0.33066912E+01
0.16975763E+01
0.10743804E+01
0.81264687E+00
0.65626681E+00
0.52987701E+00
0.41888312E+00
0.32471550E+00
0.24670613E+00
0.18388873E+00
0.13471700E+00
0.97710550E-01
0.70720591E-01
0.51173594E-01
0.36958676E-01
0.26684806E-01
0.19197509E-01
0.13926824E-01
0.10140727E-01
0.74320249E-02
0.55011790E-02
0.40922049E-02
0.30676941E-02
0.23045994E-02
0.17736943E-02
0.13697981E-02
0.10592834E-02
0.82815002E-03
0.65613532E-03
0.52370765E-03
0.42108470E-03
0.34076802E-03
0.27931243E-03
0.22998244E-03
0.19028866E-03
0.15888705E-03
0.13308699E-03
0.11212273E-03
0.95004449E-04
0.81262442E-04
0.69290560E-04
0.59584305E-04
0.50991028E-04
0.44015185E-04
0.37830927E-04
0.32818734E-04
0.28297483E-04
0.24474230E-04
0.21131269E-04
0.18242339E-04
0.15746413E-04
0.13561590E-04
0.11663921E-04
0.10033740E-04
0.85919019E-05
0.73679535E-05
0.63115444E-05
0.54186139E-05
0.46259465E-05
0.39249344E-05
0.33536223E-05
0.28275811E-05
0.23919542E-05
0.20042412E-05
0.16851434E-05
0.14095323E-05
0.11764437E-05
0.98260409E-06
0.81721180E-06
