atomic number =   15
effective nuclear charge =   15
electron count =   12
net charge =    3
basis set = approximate basis set limit (UGBS)      
exchange correlation functional = PW91PW91            
cutoff radius (picometer) =  300
number of shells =   50
prepared by = Thomas A. Manz      
prepared date = July 2010           
magnetization =    0
density in atomic units:
0.44130057E+03
0.27456602E+02
0.13404902E+02
0.77409005E+01
0.39962914E+01
0.18176404E+01
0.82104707E+00
0.40318486E+00
0.21435058E+00
0.13312554E+00
0.94465449E-01
0.73259376E-01
0.59877548E-01
0.48917115E-01
0.39744709E-01
0.31783886E-01
0.25037047E-01
0.19735971E-01
0.15346240E-01
0.11852293E-01
0.91234120E-02
0.69998689E-02
0.53758044E-02
0.41259257E-02
0.31622997E-02
0.24234492E-02
0.18624495E-02
0.14435751E-02
0.11159331E-02
0.86321653E-03
0.67141547E-03
0.52257231E-03
0.40856213E-03
0.31939612E-03
0.24994652E-03
0.19644486E-03
0.15473852E-03
0.12171575E-03
0.95355783E-04
0.74838565E-04
0.58818638E-04
0.45946312E-04
0.35901950E-04
0.28011611E-04
0.21776123E-04
0.16931092E-04
0.13107150E-04
0.10114170E-04
0.77755521E-05
0.59673212E-05
