atomic number =   11
effective nuclear charge =   11
electron count =   13
net charge =   -2
basis set = approximate basis set limit (UGBS)      
exchange correlation functional = PW91                
cutoff radius (picometer) =  300
number of shells =   50
prepared by = Thomas A. Manz      
prepared date = 2011                
magnetization =    1
density in atomic units:
0.20804611E+03
0.20611696E+02
0.61512899E+01
0.39852772E+01
0.28508544E+01
0.18788198E+01
0.11975311E+01
0.76641071E+00
0.47992590E+00
0.30186373E+00
0.18761876E+00
0.11633539E+00
0.75208120E-01
0.48793133E-01
0.32417763E-01
0.22001000E-01
0.15366635E-01
0.11360276E-01
0.87257186E-02
0.70222323E-02
0.59130802E-02
0.51717185E-02
0.46672514E-02
0.43075997E-02
0.40370054E-02
0.38247502E-02
0.36496092E-02
0.35019862E-02
0.33665774E-02
0.32399727E-02
0.31218932E-02
0.30079023E-02
0.28989643E-02
0.27921142E-02
0.26871332E-02
0.25865384E-02
0.24878832E-02
0.23898969E-02
0.22923695E-02
0.21971031E-02
0.21050884E-02
0.20126074E-02
0.19222371E-02
0.18342285E-02
0.17467461E-02
0.16617873E-02
0.15778769E-02
0.14959886E-02
0.14157089E-02
0.13383775E-02
