atomic number =    9
effective nuclear charge =    9
electron count =   10
net charge =   -1
basis set = approximate basis set limit (UGBS)      
exchange correlation functional = PW91                
cutoff radius (picometer) =  300
number of shells =   50
prepared by = Thomas A. Manz      
prepared date = 2011                
magnetization =    0
density in atomic units:
0.13168721E+03
0.18916201E+02
0.44945154E+01
0.21747508E+01
0.16094230E+01
0.12296135E+01
0.91739553E+00
0.67734545E+00
0.48864529E+00
0.35215002E+00
0.25102070E+00
0.17857286E+00
0.13067107E+00
0.95539749E-01
0.70625149E-01
0.52366767E-01
0.38947433E-01
0.29550949E-01
0.22405477E-01
0.17067268E-01
0.13078252E-01
0.10061696E-01
0.77926670E-02
0.60579856E-02
0.47190855E-02
0.36846509E-02
0.28893924E-02
0.22862966E-02
0.18059317E-02
0.14280960E-02
0.11354479E-02
0.90361323E-03
0.72247605E-03
0.57793962E-03
0.46320731E-03
0.37311128E-03
0.30146592E-03
0.24355281E-03
0.19637073E-03
0.15888741E-03
0.12893522E-03
0.10429198E-03
0.84574625E-04
0.68700785E-04
0.55719764E-04
0.45268884E-04
0.36710608E-04
0.29741193E-04
0.24056128E-04
0.19481100E-04
