atomic number =   26
effective nuclear charge =   26
electron count =   29
net charge =   -3
basis set = approximate basis set limit (UGBS)      
exchange correlation functional = PW91PW91            
cutoff radius (picometer) =  300
number of shells =   50
prepared by = Thomas A. Manz      
prepared date = July 2010           
magnetization =    5
density in atomic units:
0.21258201E+04
0.77676636E+02
0.22181206E+02
0.69813814E+01
0.42846251E+01
0.32796028E+01
0.23826277E+01
0.16413159E+01
0.10714004E+01
0.69169450E+00
0.43978626E+00
0.28130692E+00
0.18933006E+00
0.12972464E+00
0.92164449E-01
0.67504086E-01
0.50884709E-01
0.40101267E-01
0.32263231E-01
0.26619010E-01
0.22394799E-01
0.19171799E-01
0.16686559E-01
0.14680087E-01
0.13057783E-01
0.11697861E-01
0.10576589E-01
0.96403575E-02
0.88167619E-02
0.80969417E-02
0.74659525E-02
0.68983552E-02
0.63897958E-02
0.59221415E-02
0.54929447E-02
0.50994260E-02
0.47365315E-02
0.43946481E-02
0.40686880E-02
0.37666394E-02
0.34847639E-02
0.32151688E-02
0.29648684E-02
0.27310939E-02
0.25106620E-02
0.23061405E-02
0.21139560E-02
0.19348526E-02
0.17682641E-02
0.16150983E-02
