atomic number =   15
effective nuclear charge =   15
electron count =   16
net charge =   -1
basis set = approximate basis set limit (UGBS)      
exchange correlation functional = PW91PW91            
cutoff radius (picometer) =  300
number of shells =   50
prepared by = Thomas A. Manz      
prepared date = July 2010           
magnetization =    2
density in atomic units:
0.44074457E+03
0.27734051E+02
0.13520126E+02
0.77766352E+01
0.40069699E+01
0.18232132E+01
0.83032531E+00
0.41933164E+00
0.23831190E+00
0.16412775E+00
0.13126992E+00
0.11402235E+00
0.10251324E+00
0.91796555E-01
0.81507161E-01
0.71339488E-01
0.61669916E-01
0.53194173E-01
0.45421097E-01
0.38571753E-01
0.32662895E-01
0.27583133E-01
0.23293996E-01
0.19653598E-01
0.16553896E-01
0.13933023E-01
0.11736304E-01
0.99322442E-02
0.83816675E-02
0.70679942E-02
0.59760124E-02
0.50501339E-02
0.42777718E-02
0.36210548E-02
0.30660888E-02
0.26041761E-02
0.22152800E-02
0.18832044E-02
0.15978451E-02
0.13588044E-02
0.11581206E-02
0.98459248E-03
0.83871774E-03
0.71548374E-03
0.60979096E-03
0.52059628E-03
0.44409980E-03
0.37890265E-03
0.32331815E-03
0.27632125E-03
