atomic number =   26
effective nuclear charge =   26
electron count =   22
net charge =    4
basis set = approximate basis set limit (UGBS)      
exchange correlation functional = PW91PW91            
cutoff radius (picometer) =  300
number of shells =   50
prepared by = Thomas A. Manz      
prepared date = July 2010           
magnetization =    4
density in atomic units:
0.21268367E+04
0.77851257E+02
0.22000059E+02
0.68208899E+01
0.41794019E+01
0.31781168E+01
0.22685204E+01
0.15209183E+01
0.95189255E+00
0.58111405E+00
0.34201056E+00
0.19785924E+00
0.11848894E+00
0.70328444E-01
0.42347830E-01
0.25702758E-01
0.15675522E-01
0.99739134E-02
0.63795606E-02
0.41713892E-02
0.27716081E-02
0.18763907E-02
0.12994509E-02
0.91000093E-03
0.64845273E-03
0.46513189E-03
0.33954150E-03
0.25160375E-03
0.18682705E-03
0.13957376E-03
0.10484105E-03
0.78791752E-04
0.59400350E-04
0.44693330E-04
0.33660239E-04
0.25366722E-04
0.19155177E-04
0.14411317E-04
0.10749778E-04
0.80202071E-05
0.59613326E-05
0.43944242E-05
0.32250084E-05
0.23602913E-05
0.17179377E-05
0.12521597E-05
0.91381310E-06
0.66565377E-06
0.48462709E-06
0.35364968E-06
