atomic number =   43
effective nuclear charge =   43
electron count =   44
net charge =   -1
basis set = approximate basis set limit (UGBS)      
exchange correlation functional = PW91PW91            
cutoff radius (picometer) =  300
number of shells =   50
prepared by = Thomas A. Manz      
prepared date = July 2010           
magnetization =    4
density in atomic units:
0.10570028E+05
0.11983774E+03
0.46309631E+02
0.22953726E+02
0.90588264E+01
0.34076359E+01
0.18352339E+01
0.13713552E+01
0.10928681E+01
0.85771883E+00
0.64175606E+00
0.46536243E+00
0.33936423E+00
0.24440506E+00
0.17777543E+00
0.13048927E+00
0.96567996E-01
0.73872387E-01
0.56972090E-01
0.44966079E-01
0.35953447E-01
0.29251514E-01
0.24248084E-01
0.20221798E-01
0.17114421E-01
0.14501214E-01
0.12446922E-01
0.10749960E-01
0.92993183E-02
0.80873966E-02
0.70532099E-02
0.61608413E-02
0.53935982E-02
0.47232341E-02
0.41461899E-02
0.36402408E-02
0.32065222E-02
0.28236562E-02
0.24795169E-02
0.21825077E-02
0.19199692E-02
0.16858559E-02
0.14827491E-02
0.13036919E-02
0.11456560E-02
0.10071591E-02
0.88443281E-03
0.77593757E-03
0.68072334E-03
0.59744617E-03
