atomic number =   79
effective nuclear charge =   79
electron count =   75
net charge =    4
basis set = approximate basis set limit (UGBS)      
exchange correlation functional = PW91PW91            
cutoff radius (picometer) =  300
number of shells =   50
prepared by = Thomas A. Manz      
prepared date = July 2010           
magnetization =    3
density in atomic units:
0.75138000E+05
0.27460452E+03
0.74680946E+02
0.42943310E+02
0.19704662E+02
0.78535948E+01
0.38893824E+01
0.24839768E+01
0.17014641E+01
0.11859146E+01
0.79969668E+00
0.52985311E+00
0.35694769E+00
0.23728597E+00
0.15974292E+00
0.10859975E+00
0.73765337E-01
0.51984593E-01
0.36529917E-01
0.26370281E-01
0.19073613E-01
0.14043190E-01
0.10576190E-01
0.79333261E-02
0.60997037E-02
0.46413541E-02
0.36217202E-02
0.28369073E-02
0.22251918E-02
0.17667532E-02
0.14041541E-02
0.11189411E-02
0.89337793E-03
0.71380957E-03
0.57495234E-03
0.46098919E-03
0.37387348E-03
0.30381989E-03
0.24552186E-03
0.20005336E-03
0.16229281E-03
0.13179446E-03
0.10774504E-03
0.87972818E-04
0.72108822E-04
0.59146594E-04
0.48561807E-04
0.39840521E-04
0.32802775E-04
0.27027674E-04
