atomic number =   86
effective nuclear charge =   86
electron count =   87
net charge =   -1
basis set = approximate basis set limit (UGBS)      
exchange correlation functional = PW91                
cutoff radius (picometer) =  300
number of shells =   50
prepared by = Thomas A. Manz      
prepared date = 2011                
magnetization =    1
density in atomic units:
0.97859297E+05
0.29342404E+03
0.95588219E+02
0.45558697E+02
0.16865568E+02
0.72976089E+01
0.45270119E+01
0.30934820E+01
0.20221648E+01
0.12953928E+01
0.82156080E+00
0.53430897E+00
0.37487280E+00
0.27419865E+00
0.21015717E+00
0.16576482E+00
0.13309622E+00
0.10912251E+00
0.89477345E-01
0.73424637E-01
0.60255561E-01
0.49352817E-01
0.40426914E-01
0.33050206E-01
0.26940767E-01
0.21910248E-01
0.17818660E-01
0.14558003E-01
0.11845674E-01
0.96286796E-02
0.78517664E-02
0.64024027E-02
0.52403128E-02
0.42924988E-02
0.35255998E-02
0.29136189E-02
0.24212035E-02
0.20194787E-02
0.16894890E-02
0.14261766E-02
0.12149272E-02
0.10410380E-02
0.90214290E-03
0.79037697E-03
0.69953775E-03
0.62667555E-03
0.56743261E-03
0.51933707E-03
0.48051542E-03
0.44914929E-03
