atomic number =   15
effective nuclear charge =   15
electron count =   15
net charge =    0
basis set = approximate basis set limit (UGBS)      
exchange correlation functional = PW91PW91            
cutoff radius (picometer) =  300
number of shells =   50
prepared by = Thomas A. Manz      
prepared date = July 2010           
magnetization =    3
density in atomic units:
0.44087061E+03
0.27712793E+02
0.13516972E+02
0.77775192E+01
0.40071712E+01
0.18229604E+01
0.83031356E+00
0.41965750E+00
0.23871744E+00
0.16428418E+00
0.13089769E+00
0.11298813E+00
0.10083257E+00
0.89491032E-01
0.78659989E-01
0.68036780E-01
0.58003515E-01
0.49280107E-01
0.41345675E-01
0.34427803E-01
0.28526291E-01
0.23523295E-01
0.19367894E-01
0.15900997E-01
0.13011206E-01
0.10619568E-01
0.86658048E-02
0.71012317E-02
0.57937563E-02
0.47192974E-02
0.38528719E-02
0.31415909E-02
0.25675921E-02
0.20959405E-02
0.17113599E-02
0.14021227E-02
0.11510577E-02
0.94440981E-03
0.77309908E-03
0.63490169E-03
0.52293582E-03
0.42966867E-03
0.35410430E-03
0.29252426E-03
0.24156863E-03
0.20005612E-03
0.16568262E-03
0.13736893E-03
0.11401611E-03
0.94881267E-04
