atomic number =   16
effective nuclear charge =   16
electron count =   14
net charge =    2
basis set = approximate basis set limit (UGBS)      
exchange correlation functional = PW91PW91            
cutoff radius (picometer) =  300
number of shells =   50
prepared by = Thomas A. Manz      
prepared date = July 2010           
magnetization =    2
density in atomic units:
0.52144830E+03
0.30754511E+02
0.15547102E+02
0.82389278E+01
0.38701181E+01
0.16122819E+01
0.70122415E+00
0.36673135E+00
0.23237856E+00
0.17733401E+00
0.14710769E+00
0.12428913E+00
0.10517585E+00
0.87065317E-01
0.71029842E-01
0.56909811E-01
0.44972703E-01
0.35659447E-01
0.27996888E-01
0.21919386E-01
0.17169802E-01
0.13453074E-01
0.10580980E-01
0.83365077E-02
0.65713818E-02
0.51855841E-02
0.41047758E-02
0.32747085E-02
0.26060112E-02
0.20745567E-02
0.16589842E-02
0.13272099E-02
0.10660812E-02
0.85642998E-03
0.68904489E-03
0.55698684E-03
0.45165414E-03
0.36628862E-03
0.29657388E-03
0.24112241E-03
0.19677686E-03
0.16028121E-03
0.13103844E-03
0.10745515E-03
0.88136687E-04
0.72541559E-04
0.59728354E-04
0.49254897E-04
0.40658982E-04
0.33640634E-04
