atomic number =    8
effective nuclear charge =    8
electron count =    7
net charge =    1
basis set = approximate basis set limit (UGBS)      
exchange correlation functional = PW91PW91            
cutoff radius (picometer) =  300
number of shells =   50
prepared by = Thomas A. Manz      
prepared date = July 2010           
magnetization =    3
density in atomic units:
0.10158395E+03
0.17812620E+02
0.41203904E+01
0.15115495E+01
0.97921628E+00
0.76253951E+00
0.59780878E+00
0.45868567E+00
0.33961317E+00
0.24804530E+00
0.17733517E+00
0.12538455E+00
0.90596221E-01
0.65013155E-01
0.46957623E-01
0.33872351E-01
0.24412362E-01
0.17928855E-01
0.13120539E-01
0.96298717E-02
0.71030948E-02
0.52560046E-02
0.39147437E-02
0.29260176E-02
0.21906907E-02
0.16438552E-02
0.12391129E-02
0.94360323E-03
0.71707874E-03
0.54559740E-03
0.41775906E-03
0.32027150E-03
0.24694263E-03
0.19058003E-03
0.14741915E-03
0.11467606E-03
0.89545516E-04
0.69915972E-04
0.54454897E-04
0.42577060E-04
0.33418579E-04
0.26088068E-04
0.20395037E-04
0.15981142E-04
0.12487497E-04
0.97595830E-05
0.76088222E-05
0.59270569E-05
0.46105815E-05
0.35871537E-05
