atomic number =   44
effective nuclear charge =   44
electron count =   42
net charge =    2
basis set = approximate basis set limit (UGBS)      
exchange correlation functional = PW91PW91            
cutoff radius (picometer) =  300
number of shells =   50
prepared by = Thomas A. Manz      
prepared date = July 2010           
magnetization =    4
density in atomic units:
0.11381203E+05
0.12278689E+03
0.48820564E+02
0.22909231E+02
0.86128483E+01
0.33064229E+01
0.19437542E+01
0.15114254E+01
0.12021207E+01
0.92365694E+00
0.67528719E+00
0.47561169E+00
0.33702883E+00
0.23498921E+00
0.16419934E+00
0.11443820E+00
0.79985917E-01
0.57239745E-01
0.41080128E-01
0.29655250E-01
0.21705119E-01
0.16019819E-01
0.11956652E-01
0.90421000E-02
0.68649999E-02
0.52752076E-02
0.40753591E-02
0.31975380E-02
0.25122776E-02
0.19771198E-02
0.15703187E-02
0.12507741E-02
0.10036079E-02
0.80733589E-03
0.65079855E-03
0.52959938E-03
0.43218231E-03
0.35320251E-03
0.28891425E-03
0.23717886E-03
0.19591281E-03
0.16140667E-03
0.13330398E-03
0.11051224E-03
0.91456612E-04
0.75916978E-04
0.62970386E-04
0.52293271E-04
0.43417269E-04
0.36132380E-04
