atomic number =  102
effective nuclear charge =  102
electron count =  103
net charge =   -1
basis set = approximate basis set limit (UGBS)      
exchange correlation functional = PW91                
cutoff radius (picometer) =  300
number of shells =   50
prepared by = Thomas A. Manz      
prepared date = 2012                
magnetization =    1
density in atomic units:
0.16167241E+06
0.35460440E+03
0.12509438E+03
0.35520359E+02
0.17109016E+02
0.11074495E+02
0.66705308E+01
0.40020328E+01
0.24594505E+01
0.16074419E+01
0.10824530E+01
0.74202925E+00
0.52691108E+00
0.37200665E+00
0.26359338E+00
0.18576169E+00
0.13043681E+00
0.93504339E-01
0.67027196E-01
0.48561092E-01
0.35761219E-01
0.26813000E-01
0.20593110E-01
0.16189428E-01
0.13025532E-01
0.10730452E-01
0.90519404E-02
0.78194262E-02
0.68492424E-02
0.60782791E-02
0.54603969E-02
0.49429066E-02
0.45068115E-02
0.41251318E-02
0.37884035E-02
0.34912494E-02
0.32248534E-02
0.29805058E-02
0.27532736E-02
0.25470792E-02
0.23584445E-02
0.21809838E-02
0.20185381E-02
0.18687299E-02
0.17288520E-02
0.16001493E-02
0.14798641E-02
0.13680072E-02
0.12641656E-02
0.11684780E-02
