atomic number =   86
effective nuclear charge =   86
electron count =   60
net charge =   26
basis set = approximate basis set limit (UGBS)      
exchange correlation functional = PW91PW91            
cutoff radius (picometer) =  300
number of shells =   50
prepared by = Thomas A. Manz      
prepared date = July 2010           
net magnetization =    0
density in atomic units:
0.97636289E+05
0.28896140E+03
0.88953979E+02
0.44243729E+02
0.16008520E+02
0.44817414E+01
0.12194580E+01
0.36492741E+00
0.10784734E+00
0.33614729E-01
0.10552317E-01
0.32305289E-02
0.10764136E-02
0.35764519E-03
0.12404709E-03
0.44480137E-04
0.15793443E-04
0.58696496E-05
0.20871239E-05
0.72335291E-06
0.24841003E-06
0.84205723E-07
0.27864756E-07
0.83634788E-08
0.21093967E-08
0.82030183E-09
0.11755922E-08
0.17733548E-08
0.21134297E-08
0.20787312E-08
0.17622543E-08
0.13129065E-08
0.87120455E-09
0.51494337E-09
0.28207015E-09
0.16957034E-09
0.14649819E-09
0.17867401E-09
0.23506430E-09
0.28937147E-09
0.32646227E-09
0.34058364E-09
0.33107628E-09
0.30241337E-09
0.26085636E-09
0.21348048E-09
0.16545476E-09
0.12149706E-09
0.84575971E-10
0.56334569E-10
