atomic number =   33
effective nuclear charge =   33
electron count =   30
net charge =    3
basis set = approximate basis set limit (UGBS)      
exchange correlation functional = PW91PW91            
cutoff radius (picometer) =  500
number of shells =  100
prepared by = Thomas A. Manz      
prepared date = July 2010           
net magnetization =    0
density in atomic units:
0.29670291E+05
0.19739748E+03
0.45108688E+02
0.17612309E+02
0.12307175E+02
0.88129768E+01
0.56904845E+01
0.33708742E+01
0.19875405E+01
0.11666393E+01
0.69272816E+00
0.43403465E+00
0.27855968E+00
0.18503892E+00
0.13162456E+00
0.97577572E-01
0.73646188E-01
0.57275929E-01
0.45305658E-01
0.36007605E-01
0.28974114E-01
0.23523534E-01
0.19035775E-01
0.15400125E-01
0.12500201E-01
0.10122621E-01
0.81821084E-02
0.66307108E-02
0.53497050E-02
0.43189893E-02
0.34935030E-02
0.28145520E-02
0.22714706E-02
0.18348359E-02
0.14811867E-02
0.11926999E-02
0.95911388E-03
0.77151362E-03
0.62243402E-03
0.50109526E-03
0.40330135E-03
0.32458908E-03
0.26085231E-03
0.21065287E-03
0.16994261E-03
0.13632112E-03
0.10956414E-03
0.88465502E-04
0.71187940E-04
0.57278019E-04
0.46078429E-04
0.37009704E-04
0.29811068E-04
0.24054983E-04
0.19392066E-04
0.15618059E-04
0.12555762E-04
0.10097371E-04
0.81254402E-05
0.65434219E-05
0.52661940E-05
0.42364450E-05
0.34109567E-05
0.27437366E-05
0.22051756E-05
0.17775575E-05
0.14322412E-05
0.11501002E-05
0.92365775E-06
0.74089223E-06
0.59566099E-06
0.47892843E-06
0.38456758E-06
0.30922754E-06
0.24814707E-06
0.19909108E-06
0.15983119E-06
0.12824681E-06
0.10299642E-06
0.82902730E-07
0.66624821E-07
0.53509186E-07
0.42988560E-07
0.34567339E-07
0.27884875E-07
0.22549333E-07
0.18246242E-07
0.14787612E-07
0.12005847E-07
0.97464579E-08
0.79496614E-08
0.64939694E-08
0.53117257E-08
0.43674016E-08
0.35995533E-08
0.29759657E-08
0.24735118E-08
0.20609667E-08
0.17228017E-08
0.14477304E-08
