atomic number =   49
effective nuclear charge =   49
electron count =   48
net charge =    1
basis set = approximate basis set limit (UGBS)      
exchange correlation functional = PW91PW91            
cutoff radius (picometer) =  500
number of shells =  100
prepared by = Thomas A. Manz      
prepared date = July 2010           
net magnetization =    0
density in atomic units:
0.10901465E+06
0.30412674E+03
0.87936218E+02
0.39263756E+02
0.13799256E+02
0.62369876E+01
0.40751729E+01
0.32871110E+01
0.26894450E+01
0.20768547E+01
0.15283735E+01
0.11088191E+01
0.78314507E+00
0.54570091E+00
0.38980073E+00
0.28171581E+00
0.20308064E+00
0.14970715E+00
0.11226507E+00
0.84953554E-01
0.65765902E-01
0.51958226E-01
0.41329969E-01
0.33212196E-01
0.27033459E-01
0.22137767E-01
0.18231161E-01
0.15144885E-01
0.12596775E-01
0.10529690E-01
0.88462308E-02
0.74284505E-02
0.62605496E-02
0.52891029E-02
0.44713831E-02
0.37766385E-02
0.31892662E-02
0.26956031E-02
0.22846896E-02
0.19340148E-02
0.16375748E-02
0.13869890E-02
0.11738073E-02
0.99747581E-03
0.84726210E-03
0.71674731E-03
0.60754822E-03
0.51680935E-03
0.43865063E-03
0.37235700E-03
0.31615616E-03
0.26817090E-03
0.22802218E-03
0.19416958E-03
0.16527860E-03
0.14060072E-03
0.11947814E-03
0.10156549E-03
0.86383770E-04
0.73531410E-04
0.62577346E-04
0.53241303E-04
0.45324610E-04
0.38572700E-04
0.32803975E-04
0.27964083E-04
0.23832003E-04
0.20271571E-04
0.17231476E-04
0.14640568E-04
0.12465012E-04
0.10611682E-04
0.90259455E-05
0.76853103E-05
0.65339095E-05
0.55522687E-05
0.47195181E-05
0.40094023E-05
0.34075358E-05
0.28987556E-05
0.24619728E-05
0.20886384E-05
0.17704429E-05
0.15005431E-05
0.12732219E-05
0.10810380E-05
0.91667982E-06
0.77704357E-06
0.65833376E-06
0.55646501E-06
0.47101284E-06
0.39813648E-06
0.33587912E-06
0.28370403E-06
0.23929007E-06
0.20163004E-06
0.17003867E-06
0.14310572E-06
0.12023857E-06
0.10104760E-06
