atomic number =   22
effective nuclear charge =   22
electron count =   10
net charge =   12
basis set = approximate basis set limit (UGBS)      
exchange correlation functional = PW91PW91            
cutoff radius (picometer) =  500
number of shells =  100
prepared by = Thomas A. Manz      
prepared date = July 2010           
net magnetization =    0
density in atomic units:
0.79144600E+04
0.89371620E+02
0.36314991E+02
0.13536218E+02
0.44160366E+01
0.15522777E+01
0.50725418E+00
0.14982831E+00
0.45378201E-01
0.13807418E-01
0.40865107E-02
0.12762949E-02
0.38547220E-03
0.10955468E-03
0.33264016E-04
0.10512878E-04
0.32157780E-05
0.10401380E-05
0.35031161E-06
0.11422196E-06
0.36923023E-07
0.11488638E-07
0.30094638E-08
0.59452188E-09
0.70947109E-10
0.23990698E-10
0.49100255E-10
0.55240531E-10
0.41622289E-10
0.22775320E-10
0.86688868E-11
0.23228713E-11
0.28287238E-11
0.72513640E-11
0.12721982E-10
0.17232851E-10
0.19625045E-10
0.19679940E-10
0.17847080E-10
0.14756285E-10
0.11175861E-10
0.76793962E-11
0.46947030E-11
0.25177822E-11
0.11055232E-11
0.39616918E-12
0.27528110E-12
0.55077226E-12
0.10532094E-11
0.16304102E-11
0.21686607E-11
0.25932993E-11
0.28571128E-11
0.29560985E-11
0.29045620E-11
0.27248421E-11
0.24481276E-11
0.21113133E-11
0.17487204E-11
0.13901446E-11
0.10536865E-11
0.75780528E-12
0.51235475E-12
0.31979009E-12
0.18025134E-12
0.90975757E-13
0.44143427E-13
0.32324312E-13
0.48341939E-13
0.84392718E-13
0.13215489E-12
0.18577436E-12
0.24005486E-12
0.29071079E-12
0.33475271E-12
0.36970565E-12
0.39529485E-12
0.41057064E-12
0.41591765E-12
0.41226386E-12
0.40048086E-12
0.38173604E-12
0.35735957E-12
0.32906970E-12
0.29838835E-12
0.26637037E-12
0.23381205E-12
0.20217516E-12
0.17158327E-12
0.14275492E-12
0.11662143E-12
0.93073491E-13
0.72206713E-13
0.54570569E-13
0.39837308E-13
0.27824312E-13
0.18590056E-13
0.11688365E-13
0.69401361E-14
0.41428356E-14
