atomic number =   92
effective nuclear charge =   92
electron count =   30
net charge =   62
basis set = approximate basis set limit (UGBS)      
exchange correlation functional = PW91PW91            
cutoff radius (picometer) =  300
number of shells =   50
prepared by = Thomas A. Manz      
prepared date = July 2010           
net magnetization =    0
density in atomic units:
0.11950395E+06
0.22018964E+03
0.17385912E+02
0.31280468E+01
0.58041179E+00
0.74459992E-01
0.80714421E-02
0.93635579E-03
0.10078492E-03
0.13235340E-04
0.21373571E-05
0.24430375E-06
0.24950273E-07
0.67131126E-07
0.73704776E-07
0.38332455E-07
0.90362544E-08
0.23251556E-08
0.75562587E-08
0.12942461E-07
0.13346658E-07
0.97833519E-08
0.52722910E-08
0.19344513E-08
0.43903442E-09
0.42511950E-09
0.11080543E-08
0.18048915E-08
0.21841289E-08
0.21505115E-08
0.18032214E-08
0.13043002E-08
0.81215140E-09
0.41718828E-09
0.16481116E-09
0.52290703E-10
0.43817467E-10
0.99349452E-10
0.18191156E-09
0.25970953E-09
0.31494640E-09
0.34102116E-09
0.33732042E-09
0.30954059E-09
0.26539254E-09
0.21348270E-09
0.16028842E-09
0.11160020E-09
0.71038724E-10
0.40549435E-10
