atomic number =  106
effective nuclear charge =  106
electron count =   36
net charge =   70
basis set = approximate basis set limit (UGBS)      
exchange correlation functional = PW91PW91            
cutoff radius (picometer) =  500
number of shells =  100
prepared by = Thomas A. Manz      
prepared date = July 2010           
net magnetization =    0
density in atomic units:
0.12438122E+07
0.62578802E+03
0.68681168E+02
0.19093496E+02
0.31872895E+01
0.51843888E+00
0.69854282E-01
0.76261875E-02
0.91332942E-03
0.11416844E-03
0.10398765E-04
0.10383009E-05
0.47661092E-06
0.16831298E-06
0.25054723E-07
0.60177328E-07
0.12125602E-06
0.12308165E-06
0.80434710E-07
0.33939983E-07
0.91268859E-08
0.50969327E-08
0.11260924E-07
0.18022378E-07
0.20379684E-07
0.18099906E-07
0.13140795E-07
0.79094304E-08
0.37968197E-08
0.14807607E-08
0.76591999E-09
0.10864896E-08
0.18549980E-08
0.26046545E-08
0.30753722E-08
0.31747698E-08
0.29346143E-08
0.24627245E-08
0.18941109E-08
0.13248032E-08
0.83750995E-09
0.47387749E-09
0.24167857E-09
0.13215855E-09
0.11412688E-09
0.15955871E-09
0.23770630E-09
0.32236186E-09
0.39825213E-09
0.45292431E-09
0.48102028E-09
0.48212934E-09
0.46003693E-09
0.42008708E-09
0.36786491E-09
0.30917433E-09
0.24885627E-09
0.19181902E-09
0.14122133E-09
0.98948891E-10
0.65543022E-10
0.41165321E-10
0.25298253E-10
0.16756381E-10
0.14267771E-10
0.16392297E-10
0.21744892E-10
0.29172945E-10
0.37496495E-10
0.45833917E-10
0.53358418E-10
0.59688428E-10
0.64542899E-10
0.67626037E-10
0.69202526E-10
0.69089699E-10
0.67506216E-10
0.64701765E-10
0.60913739E-10
0.56392453E-10
0.51305449E-10
0.45895218E-10
0.40357686E-10
0.34892388E-10
0.29707674E-10
0.24874970E-10
0.20412762E-10
0.16421416E-10
0.12919457E-10
0.98948974E-11
0.74069388E-11
0.53895213E-11
0.38158322E-11
0.26739735E-11
0.18971873E-11
0.14513511E-11
0.12820844E-11
0.13423695E-11
0.15907670E-11
0.19817613E-11
