atomic number =   86
effective nuclear charge =   86
electron count =   68
net charge =   18
basis set = approximate basis set limit (UGBS)      
exchange correlation functional = PW91PW91            
cutoff radius (picometer) =  300
number of shells =   50
prepared by = Thomas A. Manz      
prepared date = July 2010           
net magnetization =    0
density in atomic units:
0.97819859E+05
0.29152396E+03
0.92373001E+02
0.44803890E+02
0.16631788E+02
0.62711563E+01
0.31093137E+01
0.17673990E+01
0.97155833E+00
0.51704711E+00
0.25991827E+00
0.12465996E+00
0.61387930E-01
0.29210092E-01
0.13795706E-01
0.64283186E-02
0.29417675E-02
0.14030029E-02
0.66082744E-03
0.31176713E-03
0.14763910E-03
0.69540612E-04
0.32701588E-04
0.15206824E-04
0.69327821E-05
0.31030047E-05
0.13696103E-05
0.60927829E-06
0.26423683E-06
0.11265500E-06
0.48329323E-07
0.20601910E-07
0.89192227E-08
0.39285291E-08
0.18357057E-08
0.10173693E-08
0.74925444E-09
0.72520251E-09
0.80083246E-09
0.89577346E-09
0.96780151E-09
0.99716502E-09
0.97610631E-09
0.91002761E-09
0.80842988E-09
0.68563161E-09
0.55377219E-09
0.42581857E-09
0.31026059E-09
0.21432067E-09
