atomic number =  106
effective nuclear charge =  106
electron count =   30
net charge =   76
basis set = approximate basis set limit (UGBS)      
exchange correlation functional = PW91PW91            
cutoff radius (picometer) =  500
number of shells =  100
prepared by = Thomas A. Manz      
prepared date = July 2010           
net magnetization =    0
density in atomic units:
0.12438122E+07
0.60227527E+03
0.33604275E+02
0.48723021E+01
0.65164447E+00
0.90715662E-01
0.10548967E-01
0.96811063E-03
0.93418632E-04
0.89702880E-05
0.82430114E-06
0.64670689E-06
0.42853401E-06
0.10087686E-06
0.89299164E-08
0.57345741E-07
0.10043405E-06
0.88023675E-07
0.47686367E-07
0.13837031E-07
0.12044333E-08
0.36750392E-08
0.10999049E-07
0.15914191E-07
0.16077808E-07
0.12656987E-07
0.79056477E-08
0.38050292E-08
0.11644744E-08
0.14141222E-09
0.28645231E-09
0.10167444E-08
0.18241708E-08
0.23984528E-08
0.26204732E-08
0.24981137E-08
0.21235853E-08
0.16219568E-08
0.11130071E-08
0.66603789E-09
0.33020292E-09
0.11982640E-09
0.22687845E-10
0.15127826E-10
0.65761792E-10
0.14862087E-09
0.23691074E-09
0.31239983E-09
0.36753442E-09
0.39669679E-09
0.39982184E-09
0.38019465E-09
0.34393660E-09
0.29702346E-09
0.24470503E-09
0.19169660E-09
0.14179009E-09
0.98282764E-10
0.62781870E-10
0.35884833E-10
0.17199235E-10
0.60476403E-11
0.13784572E-11
0.18272712E-11
0.60719043E-11
0.12699375E-10
0.20649758E-10
0.29096591E-10
0.37111501E-10
0.44154649E-10
0.49760668E-10
0.53828862E-10
0.56321073E-10
0.57159406E-10
0.56674651E-10
0.54859096E-10
0.51963139E-10
0.48271227E-10
0.44033190E-10
0.39463318E-10
0.34686799E-10
0.29890004E-10
0.25243172E-10
0.20867492E-10
0.16893733E-10
0.13347606E-10
0.10217136E-10
0.75514837E-11
0.53377194E-11
0.35453830E-11
0.21853643E-11
0.11957326E-11
0.54008409E-12
0.18622542E-12
0.81633112E-13
0.18461408E-12
0.45095508E-12
0.84547918E-12
0.13330026E-11
0.18793769E-11
