atomic number =  106
effective nuclear charge =  106
electron count =   28
net charge =   78
basis set = approximate basis set limit (UGBS)      
exchange correlation functional = PW91PW91            
cutoff radius (picometer) =  500
number of shells =  100
prepared by = Thomas A. Manz      
prepared date = July 2010           
net magnetization =    0
density in atomic units:
0.12318075E+07
0.59339148E+03
0.20460552E+02
0.41456112E+00
0.55825943E-02
0.13754069E-03
0.82619927E-05
0.24906992E-05
0.30900605E-05
0.52472478E-06
0.23317914E-06
0.61024855E-06
0.42594814E-06
0.10033167E-06
0.86183380E-08
0.57173530E-07
0.10036591E-06
0.88005990E-07
0.47684885E-07
0.13836286E-07
0.12014978E-08
0.36709582E-08
0.10994155E-07
0.15911283E-07
0.16076145E-07
0.12655831E-07
0.79053706E-08
0.38049506E-08
0.11644664E-08
0.14136405E-09
0.28631783E-09
0.10165371E-08
0.18240437E-08
0.23982112E-08
0.26202371E-08
0.24979387E-08
0.21234583E-08
0.16218624E-08
0.11129465E-08
0.66600397E-09
0.33019076E-09
0.11982358E-09
0.22687600E-10
0.15124912E-10
0.65753673E-10
0.14860954E-09
0.23690722E-09
0.31238645E-09
0.36751105E-09
0.39666220E-09
0.39979398E-09
0.38016865E-09
0.34391420E-09
0.29700858E-09
0.24468225E-09
0.19168174E-09
0.14178264E-09
0.98276630E-10
0.62778657E-10
0.35882686E-10
0.17198423E-10
0.60473779E-11
0.13784371E-11
0.18271610E-11
0.60714745E-11
0.12698608E-10
0.20648924E-10
0.29096434E-10
0.37111252E-10
0.44153722E-10
0.49758697E-10
0.53826679E-10
0.56318079E-10
0.57156006E-10
0.56671296E-10
0.54856543E-10
0.51959503E-10
0.48267914E-10
0.44029332E-10
0.39461032E-10
0.34684641E-10
0.29888005E-10
0.25241732E-10
0.20866069E-10
0.16892819E-10
0.13346774E-10
0.10216532E-10
0.75510735E-11
0.53374284E-11
0.35451327E-11
0.21852173E-11
0.11956609E-11
0.54005346E-12
0.18621602E-12
0.81632421E-13
0.18460805E-12
0.45093505E-12
0.84543418E-12
0.13329499E-11
0.18793500E-11
