atomic number =  105
effective nuclear charge =  105
electron count =   86
net charge =   19
basis set = approximate basis set limit (UGBS)      
exchange correlation functional = PW91PW91            
cutoff radius (picometer) =  400
number of shells =   75
prepared by = Thomas A. Manz      
prepared date = July 2010           
net magnetization =    0
density in atomic units:
0.17514477E+06
0.46168878E+03
0.17765128E+03
0.58929482E+02
0.22168667E+02
0.12635082E+02
0.72696366E+01
0.38359785E+01
0.20638216E+01
0.12596616E+01
0.86688554E+00
0.63439399E+00
0.47162038E+00
0.35079184E+00
0.25777042E+00
0.18640678E+00
0.13246548E+00
0.93094334E-01
0.65209635E-01
0.45514125E-01
0.31642113E-01
0.21875717E-01
0.15005815E-01
0.10297926E-01
0.70693227E-02
0.48502553E-02
0.33311318E-02
0.22961863E-02
0.15695026E-02
0.10732177E-02
0.74330019E-03
0.51411043E-03
0.35216240E-03
0.24042331E-03
0.16571114E-03
0.11418093E-03
0.78131758E-04
0.53688826E-04
0.37117334E-04
0.25529671E-04
0.17483899E-04
0.12068987E-04
0.83482701E-05
0.57683960E-05
0.39988140E-05
0.27735764E-05
0.19271611E-05
0.13383041E-05
0.92578011E-06
0.64111441E-06
0.44378888E-06
0.30749609E-06
0.21199664E-06
0.14593135E-06
0.10071741E-06
0.69126983E-07
0.47200142E-07
0.32243204E-07
0.22068601E-07
0.15091603E-07
0.10327645E-07
0.71345281E-08
0.49697717E-08
0.35041512E-08
0.25183435E-08
0.18462054E-08
0.13975707E-08
0.10856073E-08
0.86616425E-09
0.71033623E-09
0.59585115E-09
0.50563914E-09
0.43189821E-09
0.37178202E-09
0.31900751E-09
