atomic number =   88
effective nuclear charge =   88
electron count =   46
net charge =   42
basis set = approximate basis set limit (UGBS)      
exchange correlation functional = PW91PW91            
cutoff radius (picometer) =  300
number of shells =   50
prepared by = Thomas A. Manz      
prepared date = July 2010           
net magnetization =    0
density in atomic units:
0.10470059E+06
0.24759485E+03
0.58851608E+02
0.27809992E+02
0.86516657E+01
0.19042078E+01
0.37983525E+00
0.80353118E-01
0.15722236E-01
0.31592939E-02
0.63405395E-03
0.11827196E-03
0.23421033E-04
0.42703796E-05
0.80871399E-06
0.17756579E-06
0.39029121E-07
0.11215370E-07
0.10751541E-07
0.14409401E-07
0.14265495E-07
0.10486393E-07
0.58123479E-08
0.23004263E-08
0.64235051E-09
0.51197035E-09
0.11382758E-08
0.18282705E-08
0.22288933E-08
0.22234845E-08
0.18962905E-08
0.14033165E-08
0.90308133E-09
0.49074722E-09
0.21720364E-09
0.84856851E-10
0.60800809E-10
0.10608305E-09
0.18364682E-09
0.26088731E-09
0.31832195E-09
0.34804676E-09
0.34811670E-09
0.32335115E-09
0.28102939E-09
0.22975778E-09
0.17599830E-09
0.12582291E-09
0.83177021E-10
0.50303688E-10
