atomic number =   91
effective nuclear charge =   91
electron count =   60
net charge =   31
basis set = approximate basis set limit (UGBS)      
exchange correlation functional = PW91PW91            
cutoff radius (picometer) =  300
number of shells =   50
prepared by = Thomas A. Manz      
prepared date = July 2010           
net magnetization =    0
density in atomic units:
0.11583189E+06
0.30057333E+03
0.10127533E+03
0.42520813E+02
0.12609994E+02
0.28817275E+01
0.64285177E+00
0.16009390E+00
0.38534340E-01
0.97467732E-02
0.25126848E-02
0.62735897E-03
0.16905756E-03
0.43881304E-04
0.11772042E-04
0.33727249E-05
0.99067597E-06
0.32080655E-06
0.10694635E-06
0.42543238E-07
0.22095282E-07
0.12831477E-07
0.68547870E-08
0.29845117E-08
0.11115447E-08
0.79142443E-09
0.12758740E-08
0.18885831E-08
0.22649200E-08
0.22696129E-08
0.19662936E-08
0.14943000E-08
0.10046550E-08
0.59088201E-09
0.30615471E-09
0.15705665E-09
0.11478417E-09
0.14317975E-09
0.20703059E-09
0.27477429E-09
0.32675579E-09
0.35408468E-09
0.35422126E-09
0.33097561E-09
0.29054931E-09
0.24103505E-09
0.18856511E-09
0.13900041E-09
0.96249411E-10
0.62686648E-10
