atomic number =   96
effective nuclear charge =   96
electron count =   12
net charge =   84
basis set = approximate basis set limit (UGBS)      
exchange correlation functional = PW91PW91            
cutoff radius (picometer) =  300
number of shells =   50
prepared by = Thomas A. Manz      
prepared date = July 2010           
net magnetization =    0
density in atomic units:
0.13343698E+06
0.28585304E+02
0.88915670E+00
0.12703154E-01
0.13468116E-03
0.30239962E-05
0.20876453E-05
0.10213562E-05
0.84666205E-07
0.36018608E-06
0.23683855E-06
0.28844971E-07
0.17867833E-07
0.57986441E-07
0.55814915E-07
0.26183251E-07
0.46161359E-08
0.82949808E-09
0.55209584E-08
0.96657926E-08
0.97656780E-08
0.69120798E-08
0.34990821E-08
0.10896081E-08
0.10694534E-09
0.21373339E-09
0.79155243E-09
0.13317919E-08
0.16048840E-08
0.15582304E-08
0.12808126E-08
0.90035818E-09
0.53594257E-09
0.25219488E-09
0.78649053E-10
0.92686848E-11
0.14898766E-10
0.64634520E-10
0.13081898E-09
0.19018806E-09
0.23048710E-09
0.24801880E-09
0.24304087E-09
0.22050566E-09
0.18632472E-09
0.14727691E-09
0.10801045E-09
0.72789677E-10
0.43968787E-10
0.22871139E-10
