atomic number =   88
effective nuclear charge =   88
electron count =   68
net charge =   20
basis set = approximate basis set limit (UGBS)      
exchange correlation functional = PW91PW91            
cutoff radius (picometer) =  300
number of shells =   50
prepared by = Thomas A. Manz      
prepared date = July 2010           
net magnetization =    0
density in atomic units:
0.10492773E+06
0.29648035E+03
0.97783257E+02
0.44333378E+02
0.15666982E+02
0.59822278E+01
0.30015757E+01
0.16603297E+01
0.86730015E+00
0.43463543E+00
0.20490304E+00
0.91963664E-01
0.42585813E-01
0.19013412E-01
0.84047643E-02
0.36557566E-02
0.15545110E-02
0.69176016E-03
0.30422994E-03
0.13449839E-03
0.59932368E-04
0.26607942E-04
0.11780450E-04
0.51273978E-05
0.21621513E-05
0.87968601E-06
0.34506468E-06
0.13340598E-06
0.49064155E-07
0.17651789E-07
0.66984223E-08
0.28087908E-08
0.13312920E-08
0.65115408E-09
0.30869593E-09
0.17533480E-09
0.18960315E-09
0.30295838E-09
0.46570742E-09
0.62632638E-09
0.75125883E-09
0.82431145E-09
0.83737173E-09
0.79821622E-09
0.71770750E-09
0.61204825E-09
0.49467164E-09
0.37903611E-09
0.27418592E-09
0.18736547E-09
