atomic number =   93
effective nuclear charge =   93
electron count =    2
net charge =   91
basis set = approximate basis set limit (UGBS)      
exchange correlation functional = PW91PW91            
cutoff radius (picometer) =  300
number of shells =   50
prepared by = Thomas A. Manz      
prepared date = July 2010           
net magnetization =    0
density in atomic units:
0.10162248E+06
0.77922404E-03
0.65764390E-04
0.21156584E-04
0.46276514E-05
0.12815904E-05
0.87930573E-06
0.47360064E-06
0.34792226E-07
0.15763172E-06
0.10641049E-06
0.13125736E-07
0.73443975E-08
0.25205638E-07
0.24561571E-07
0.11589268E-07
0.20376603E-08
0.31674530E-09
0.23648961E-08
0.41992978E-08
0.42612758E-08
0.30211995E-08
0.15290255E-08
0.47335069E-09
0.41740094E-10
0.87622673E-10
0.34038158E-09
0.57714417E-09
0.69717543E-09
0.67742822E-09
0.55677368E-09
0.39112150E-09
0.23235329E-09
0.10879912E-09
0.33321380E-10
0.32458313E-11
0.58449578E-11
0.27638133E-10
0.56542476E-10
0.82452427E-10
0.10004904E-09
0.10765679E-09
0.10547981E-09
0.95632176E-10
0.80767316E-10
0.63770531E-10
0.46708217E-10
0.31398027E-10
0.18904159E-10
0.97608753E-11
