atomic number =   62
effective nuclear charge =   62
electron count =   54
net charge =    8
basis set = approximate basis set limit (UGBS)      
exchange correlation functional = PW91PW91            
cutoff radius (picometer) =  400
number of shells =   75
prepared by = Thomas A. Manz      
prepared date = July 2010           
net magnetization =    0
density in atomic units:
0.34547547E+05
0.26923303E+03
0.90421860E+02
0.25202642E+02
0.14160631E+02
0.10155318E+02
0.63204961E+01
0.34688299E+01
0.18501139E+01
0.10730280E+01
0.70850980E+00
0.52143663E+00
0.40822110E+00
0.32878909E+00
0.26527616E+00
0.21184964E+00
0.16663037E+00
0.12943509E+00
0.99876538E-01
0.76552577E-01
0.58334854E-01
0.44142652E-01
0.33145994E-01
0.24849152E-01
0.18602559E-01
0.13896545E-01
0.10373994E-01
0.77559161E-02
0.57524364E-02
0.42651035E-02
0.31919202E-02
0.23862065E-02
0.17704914E-02
0.13111125E-02
0.97920652E-03
0.73175033E-03
0.54453587E-03
0.40697222E-03
0.30585928E-03
0.22909409E-03
0.17113290E-03
0.12864370E-03
0.96841526E-04
0.72842100E-04
0.54901804E-04
0.41385982E-04
0.31228214E-04
0.23546576E-04
0.17699527E-04
0.13315629E-04
0.10019227E-04
0.75470598E-05
0.56683148E-05
0.42555730E-05
0.32051985E-05
0.24063604E-05
0.18003132E-05
0.13487916E-05
0.10117259E-05
0.75755457E-06
0.56640999E-06
0.42403411E-06
0.31737062E-06
0.23682449E-06
0.17652685E-06
0.13149051E-06
0.98075269E-07
0.72898679E-07
0.54027581E-07
0.40076515E-07
0.29762202E-07
0.21943716E-07
0.16110983E-07
0.11815690E-07
0.86624432E-08
