atomic number =   90
effective nuclear charge =   90
electron count =   60
net charge =   30
basis set = approximate basis set limit (UGBS)      
exchange correlation functional = PW91PW91            
cutoff radius (picometer) =  300
number of shells =   50
prepared by = Thomas A. Manz      
prepared date = July 2010           
net magnetization =    0
density in atomic units:
0.11206256E+06
0.29822269E+03
0.98968185E+02
0.43091309E+02
0.13300196E+02
0.31669824E+01
0.73556614E+00
0.19001965E+00
0.47644541E-01
0.12558384E-01
0.33579655E-02
0.86768687E-03
0.24210406E-03
0.65630426E-04
0.18509303E-04
0.55655846E-05
0.17099142E-05
0.57209780E-06
0.19011034E-06
0.68142704E-07
0.29025282E-07
0.14152041E-07
0.67776140E-08
0.27291713E-08
0.96205333E-09
0.75705142E-09
0.13030514E-08
0.19291913E-08
0.22921303E-08
0.22757092E-08
0.19541673E-08
0.14729202E-08
0.98278019E-09
0.57422456E-09
0.29733091E-09
0.15591446E-09
0.11951064E-09
0.15135093E-09
0.21628559E-09
0.28320665E-09
0.33325950E-09
0.35815345E-09
0.35584222E-09
0.33049441E-09
0.28871347E-09
0.23838129E-09
0.18570512E-09
0.13636077E-09
0.94113189E-10
0.61200191E-10
