atomic number =  102
effective nuclear charge =  102
electron count =   80
net charge =   22
basis set = approximate basis set limit (UGBS)      
exchange correlation functional = PW91PW91            
cutoff radius (picometer) =  500
number of shells =  100
prepared by = Thomas A. Manz      
prepared date = July 2010           
net magnetization =    0
density in atomic units:
0.11220821E+07
0.75927112E+03
0.20358675E+03
0.73561562E+02
0.23667757E+02
0.13639377E+02
0.89205484E+01
0.52926555E+01
0.29892702E+01
0.16392359E+01
0.89988333E+00
0.52227747E+00
0.30949500E+00
0.18811108E+00
0.12157851E+00
0.80673046E-01
0.53189736E-01
0.35618592E-01
0.23934091E-01
0.15897535E-01
0.10645088E-01
0.71874759E-02
0.47957827E-02
0.31882727E-02
0.21303480E-02
0.14168249E-02
0.93885988E-03
0.62583707E-03
0.41380094E-03
0.27397525E-03
0.18220780E-03
0.12022306E-03
0.79605343E-04
0.52816053E-04
0.35008019E-04
0.23113198E-04
0.15237357E-04
0.10069938E-04
0.67081583E-05
0.44704502E-05
0.29885837E-05
0.20104030E-05
0.13564220E-05
0.92968929E-06
0.64077835E-06
0.44075716E-06
0.30634203E-06
0.21593640E-06
0.15246464E-06
0.10803955E-06
0.76861390E-07
0.54609206E-07
0.38921645E-07
0.27727726E-07
0.19584551E-07
0.13659426E-07
0.93712940E-08
0.62958172E-08
0.41304968E-08
0.26243214E-08
0.15941957E-08
0.91592028E-09
0.49775334E-09
0.25991947E-09
0.14867349E-09
0.12211217E-09
0.14774056E-09
0.20339314E-09
0.27199840E-09
0.34181485E-09
0.40415643E-09
0.45447066E-09
0.49184828E-09
0.51383831E-09
0.52161969E-09
0.51618998E-09
0.49960447E-09
0.47482929E-09
0.44088339E-09
0.40401418E-09
0.36335587E-09
0.32073805E-09
0.27888697E-09
0.23796373E-09
0.20020371E-09
0.16569131E-09
0.13444006E-09
0.10708712E-09
0.83748980E-10
0.64098421E-10
0.48547128E-10
0.36481269E-10
0.27514780E-10
0.21678390E-10
0.18407709E-10
0.17266601E-10
0.18031176E-10
0.20192270E-10
0.23517757E-10
0.27615157E-10
