atomic number =   70
effective nuclear charge =   70
electron count =   54
net charge =   16
basis set = approximate basis set limit (UGBS)      
exchange correlation functional = PW91PW91            
cutoff radius (picometer) =  500
number of shells =  100
prepared by = Thomas A. Manz      
prepared date = July 2010           
net magnetization =    0
density in atomic units:
0.35307784E+06
0.46581561E+03
0.10983492E+03
0.29453119E+02
0.19393381E+02
0.12511774E+02
0.67424603E+01
0.33062389E+01
0.17762877E+01
0.11038378E+01
0.78471732E+00
0.61125267E+00
0.48376858E+00
0.38000777E+00
0.29940349E+00
0.23328719E+00
0.17745592E+00
0.13439132E+00
0.10093854E+00
0.74657731E-01
0.55292282E-01
0.41071862E-01
0.30186573E-01
0.22108458E-01
0.16256537E-01
0.11917648E-01
0.87233009E-02
0.64221206E-02
0.47057690E-02
0.34575949E-02
0.25519007E-02
0.18751201E-02
0.13830297E-02
0.10223136E-02
0.75559790E-03
0.55689109E-03
0.40997591E-03
0.30211607E-03
0.22370809E-03
0.16535183E-03
0.12224549E-03
0.90508613E-04
0.66928878E-04
0.49883871E-04
0.37176560E-04
0.27513322E-04
0.20433403E-04
0.15276168E-04
0.11375074E-04
0.84665880E-05
0.63019843E-05
0.46783330E-05
0.34843051E-05
0.26009066E-05
0.19363697E-05
0.14398684E-05
0.10665804E-05
0.79021521E-06
0.58537222E-06
0.43417691E-06
0.32154500E-06
0.23808126E-06
0.17655070E-06
0.13088633E-06
0.97020873E-07
0.72298306E-07
0.53957603E-07
0.40155271E-07
0.29965808E-07
0.22373115E-07
0.16802009E-07
0.12660316E-07
0.95504538E-08
0.72309900E-08
0.54819420E-08
0.41669206E-08
0.31757714E-08
0.24223641E-08
0.18573010E-08
0.14278442E-08
0.10950205E-08
0.84117430E-09
0.64652528E-09
0.49745952E-09
0.38209447E-09
0.29506350E-09
0.22718651E-09
0.17431973E-09
0.13380311E-09
0.10199107E-09
0.77896946E-10
0.59203462E-10
0.44799595E-10
0.33916710E-10
0.25580144E-10
0.19285655E-10
0.14580406E-10
0.11121559E-10
0.85840415E-11
0.67928120E-11
