atomic number =   96
effective nuclear charge =   96
electron count =   60
net charge =   36
basis set = approximate basis set limit (UGBS)      
exchange correlation functional = PW91PW91            
cutoff radius (picometer) =  300
number of shells =   50
prepared by = Thomas A. Manz      
prepared date = July 2010           
net magnetization =    0
density in atomic units:
0.13559139E+06
0.31309482E+03
0.11093469E+03
0.38333855E+02
0.93022966E+01
0.17278928E+01
0.31453156E+00
0.65523468E-01
0.12907359E-01
0.26453461E-02
0.56875095E-03
0.12247438E-03
0.28917653E-04
0.62967733E-05
0.13228503E-05
0.27812715E-06
0.52947865E-07
0.12022033E-07
0.92936148E-08
0.12527438E-07
0.12810434E-07
0.99529771E-08
0.61811156E-08
0.32090790E-08
0.16498048E-08
0.12956248E-08
0.15720214E-08
0.19501409E-08
0.21451996E-08
0.20605893E-08
0.17526751E-08
0.13323714E-08
0.91619717E-09
0.57245403E-09
0.33844996E-09
0.21532295E-09
0.17739724E-09
0.19447245E-09
0.23813912E-09
0.28383007E-09
0.31650971E-09
0.32964662E-09
0.32167477E-09
0.29615152E-09
0.25818903E-09
0.21421726E-09
0.16898304E-09
0.12704555E-09
0.91212204E-10
0.63209431E-10
