atomic number =   86
effective nuclear charge =   86
electron count =   30
net charge =   56
basis set = approximate basis set limit (UGBS)      
exchange correlation functional = PW91PW91            
cutoff radius (picometer) =  300
number of shells =   50
prepared by = Thomas A. Manz      
prepared date = July 2010           
net magnetization =    0
density in atomic units:
0.97509961E+05
0.23121695E+03
0.21470808E+02
0.38753562E+01
0.91954201E+00
0.15912125E+00
0.23290018E-01
0.36014614E-02
0.52211154E-03
0.80716731E-04
0.12222715E-04
0.13786899E-05
0.99891814E-07
0.43797435E-07
0.54840246E-07
0.28982249E-07
0.66194503E-08
0.26964073E-08
0.79486666E-08
0.12427377E-07
0.12255160E-07
0.87136200E-08
0.45649147E-08
0.16195550E-08
0.37631931E-09
0.44650164E-09
0.11010681E-08
0.17307593E-08
0.20515556E-08
0.19921624E-08
0.16525707E-08
0.11836270E-08
0.72911677E-09
0.36959930E-09
0.14363839E-09
0.46381916E-10
0.43670307E-10
0.98169479E-10
0.17585483E-09
0.24768676E-09
0.29773220E-09
0.32037475E-09
0.31535705E-09
0.28822766E-09
0.24615263E-09
0.19733754E-09
0.14761403E-09
0.10235039E-09
0.64805994E-10
0.36754752E-10
