atomic number =   65
effective nuclear charge =   65
electron count =    2
net charge =   63
basis set = approximate basis set limit (UGBS)      
exchange correlation functional = PW91PW91            
cutoff radius (picometer) =  300
number of shells =   50
prepared by = Thomas A. Manz      
prepared date = July 2010           
net magnetization =    0
density in atomic units:
0.33938492E+05
0.21576867E-03
0.16902952E-04
0.55854898E-05
0.12765601E-05
0.33785540E-06
0.24468150E-06
0.12829855E-06
0.97246984E-08
0.43880391E-07
0.29259885E-07
0.35460137E-08
0.20821023E-08
0.70316148E-08
0.68128450E-08
0.31997769E-08
0.55730681E-09
0.89929009E-10
0.66293154E-09
0.11713469E-08
0.11857645E-08
0.83918739E-09
0.42387779E-09
0.13074410E-09
0.11403175E-10
0.24709601E-10
0.95272241E-10
0.16113809E-09
0.19440809E-09
0.18874061E-09
0.15502036E-09
0.10882263E-09
0.64595239E-10
0.30211972E-10
0.92275779E-11
0.89103827E-12
0.16472794E-11
0.77383672E-11
0.15798968E-10
0.23016629E-10
0.27915597E-10
0.30030083E-10
0.29408059E-10
0.26657633E-10
0.22506452E-10
0.17766677E-10
0.13010932E-10
0.87430375E-11
0.52616501E-11
0.27153553E-11
