atomic number =   89
effective nuclear charge =   89
electron count =   28
net charge =   61
basis set = approximate basis set limit (UGBS)      
exchange correlation functional = PW91PW91            
cutoff radius (picometer) =  300
number of shells =   50
prepared by = Thomas A. Manz      
prepared date = July 2010           
net magnetization =    0
density in atomic units:
0.10733538E+06
0.22293706E+03
0.13122735E+02
0.41296884E+00
0.11734822E-01
0.28191958E-03
0.67616561E-05
0.89039963E-06
0.93347026E-07
0.27271514E-06
0.20719311E-06
0.41992415E-07
0.16926460E-07
0.43352088E-07
0.45009688E-07
0.24388438E-07
0.67916108E-08
0.18840400E-08
0.42154986E-08
0.72095006E-08
0.76572304E-08
0.58401350E-08
0.33431959E-08
0.13843123E-08
0.41309142E-09
0.29072952E-09
0.60772753E-09
0.98074748E-09
0.12069965E-08
0.12148287E-08
0.10448850E-08
0.78023860E-09
0.50786286E-09
0.28062389E-09
0.12774366E-09
0.51712138E-10
0.35256763E-10
0.57476548E-10
0.98219148E-10
0.13959556E-09
0.17084219E-09
0.18738970E-09
0.18801327E-09
0.17516470E-09
0.15270260E-09
0.12523931E-09
0.96323831E-10
0.69204441E-10
0.46050240E-10
0.28129431E-10
