atomic number =   98
effective nuclear charge =   98
electron count =   18
net charge =   80
basis set = approximate basis set limit (UGBS)      
exchange correlation functional = PW91PW91            
cutoff radius (picometer) =  300
number of shells =   50
prepared by = Thomas A. Manz      
prepared date = July 2010           
net magnetization =    0
density in atomic units:
0.14184459E+06
0.10237376E+03
0.32525823E+01
0.48196945E-01
0.60626375E-03
0.10724316E-04
0.23580071E-05
0.12041515E-05
0.11527852E-06
0.40212885E-06
0.27602994E-06
0.40236280E-07
0.20974039E-07
0.64521643E-07
0.63645743E-07
0.31190339E-07
0.64302075E-08
0.13290280E-08
0.61228307E-08
0.10760689E-07
0.11055513E-07
0.80028277E-08
0.42030801E-08
0.14361301E-08
0.23586263E-09
0.27352065E-09
0.87733248E-09
0.14744159E-08
0.17937635E-08
0.17619795E-08
0.14682349E-08
0.10506047E-08
0.64225364E-09
0.31775052E-09
0.11346320E-09
0.25686326E-10
0.23640024E-10
0.73545989E-10
0.14452384E-09
0.21025748E-09
0.25640245E-09
0.27776034E-09
0.27424762E-09
0.25080216E-09
0.21390588E-09
0.17088451E-09
0.12707219E-09
0.87240062E-10
0.54293226E-10
0.29751913E-10
