atomic number =   58
effective nuclear charge =   58
electron count =   36
net charge =   22
basis set = approximate basis set limit (UGBS)      
exchange correlation functional = PW91PW91            
cutoff radius (picometer) =  300
number of shells =   50
prepared by = Thomas A. Manz      
prepared date = July 2010           
net magnetization =    0
density in atomic units:
0.27791594E+05
0.17773401E+03
0.58891853E+02
0.14240485E+02
0.59646468E+01
0.35325050E+01
0.19293258E+01
0.96251458E+00
0.43102777E+00
0.18381825E+00
0.73890410E-01
0.28450249E-01
0.11579279E-01
0.45788344E-02
0.17990739E-02
0.69399987E-03
0.25843509E-03
0.10058338E-03
0.38331305E-04
0.14652728E-04
0.56708059E-05
0.22032154E-05
0.86419072E-06
0.33865061E-06
0.13163047E-06
0.51413302E-07
0.20743546E-07
0.91336512E-08
0.43931356E-08
0.23752800E-08
0.14374587E-08
0.92107905E-09
0.59944788E-09
0.37745312E-09
0.22315583E-09
0.12275823E-09
0.63838462E-10
0.36381675E-10
0.31251449E-10
0.39496958E-10
0.53120262E-10
0.66786458E-10
0.76574330E-10
0.80931220E-10
0.79798716E-10
0.73989877E-10
0.64794614E-10
0.53749276E-10
0.42243840E-10
0.31498144E-10
