atomic number =   95
effective nuclear charge =   95
electron count =   12
net charge =   83
basis set = approximate basis set limit (UGBS)      
exchange correlation functional = PW91PW91            
cutoff radius (picometer) =  300
number of shells =   50
prepared by = Thomas A. Manz      
prepared date = July 2010           
net magnetization =    0
density in atomic units:
0.12944357E+06
0.29092884E+02
0.97559035E+00
0.14924940E-01
0.17198356E-03
0.32802134E-05
0.20008101E-05
0.97429302E-06
0.80272358E-07
0.34293174E-06
0.22563128E-06
0.27444257E-07
0.16981888E-07
0.55220831E-07
0.53162065E-07
0.24932994E-07
0.43885287E-08
0.78458517E-09
0.52563358E-08
0.92058983E-08
0.93003525E-08
0.65821535E-08
0.33308238E-08
0.10361412E-08
0.10073626E-09
0.20302457E-09
0.75377865E-09
0.12684103E-08
0.15284406E-08
0.14837189E-08
0.12196611E-08
0.85733542E-09
0.51006749E-09
0.23990224E-09
0.74669396E-10
0.86729582E-11
0.14107435E-10
0.61536595E-10
0.12460115E-09
0.18116424E-09
0.21954390E-09
0.23623775E-09
0.23147081E-09
0.20994977E-09
0.17742696E-09
0.14020352E-09
0.10283071E-09
0.69256136E-10
0.41839220E-10
0.21743366E-10
