atomic number =   77
effective nuclear charge =   77
electron count =   48
net charge =   29
basis set = approximate basis set limit (UGBS)      
exchange correlation functional = PW91PW91            
cutoff radius (picometer) =  500
number of shells =  100
prepared by = Thomas A. Manz      
prepared date = July 2010           
net magnetization =    0
density in atomic units:
0.47973625E+06
0.52896082E+03
0.96248734E+02
0.34657505E+02
0.21611647E+02
0.11393326E+02
0.51557665E+01
0.21864393E+01
0.10293781E+01
0.54213303E+00
0.31098589E+00
0.19221231E+00
0.11869848E+00
0.72131261E-01
0.44764470E-01
0.27682833E-01
0.16581990E-01
0.99646524E-02
0.59634647E-02
0.34951817E-02
0.20629521E-02
0.12292842E-02
0.72030548E-03
0.41980061E-03
0.24637935E-03
0.14392064E-03
0.83828236E-04
0.49371269E-04
0.28891578E-04
0.17014285E-04
0.10131573E-04
0.60015959E-05
0.35861485E-05
0.21547764E-05
0.12946305E-05
0.77324108E-06
0.45924190E-06
0.27156585E-06
0.16051649E-06
0.93516228E-07
0.53682339E-07
0.30363484E-07
0.16767677E-07
0.91758521E-08
0.49000595E-08
0.25176030E-08
0.12870552E-08
0.68430150E-09
0.39363734E-09
0.26472927E-09
0.21008814E-09
0.18405330E-09
0.16593604E-09
0.14729427E-09
0.12607425E-09
0.10316679E-09
0.80296554E-10
0.59473738E-10
0.42048878E-10
0.28732844E-10
0.19598967E-10
0.14468777E-10
0.12839249E-10
0.14004894E-10
0.17227704E-10
0.21682376E-10
0.26760880E-10
0.31968872E-10
0.36755161E-10
0.40809026E-10
0.43851259E-10
0.45865669E-10
0.46718157E-10
0.46603926E-10
0.45485740E-10
0.43660631E-10
0.41080066E-10
0.37993185E-10
0.34579214E-10
0.30979445E-10
0.27275801E-10
0.23601558E-10
0.20060020E-10
0.16755432E-10
0.13746742E-10
0.11068549E-10
0.87087499E-11
0.66942155E-11
0.50162136E-11
0.36513063E-11
0.26054098E-11
0.18363668E-11
0.13148312E-11
0.10180864E-11
0.90729681E-12
0.95390351E-12
0.11241318E-11
0.13910469E-11
0.17317059E-11
0.21184959E-11
