atomic number =   62
effective nuclear charge =   62
electron count =   54
net charge =    8
basis set = approximate basis set limit (UGBS)      
exchange correlation functional = PW91PW91            
cutoff radius (picometer) =  500
number of shells =  100
prepared by = Thomas A. Manz      
prepared date = July 2010           
net magnetization =    0
density in atomic units:
0.23745534E+06
0.39416638E+03
0.11911613E+03
0.29635323E+02
0.14674190E+02
0.11359376E+02
0.76947951E+01
0.44723763E+01
0.25234492E+01
0.14588201E+01
0.91391766E+00
0.64793795E+00
0.49395072E+00
0.39280090E+00
0.32205522E+00
0.26436126E+00
0.21334912E+00
0.17123654E+00
0.13600636E+00
0.10626152E+00
0.82788698E-01
0.64438865E-01
0.49560227E-01
0.37903953E-01
0.29020835E-01
0.22114363E-01
0.16798293E-01
0.12801003E-01
0.97003477E-02
0.73585520E-02
0.55978815E-02
0.42374791E-02
0.32159851E-02
0.24448279E-02
0.18576226E-02
0.14077268E-02
0.10657037E-02
0.80768537E-03
0.61500265E-03
0.46760641E-03
0.35576211E-03
0.27106365E-03
0.20636476E-03
0.15827348E-03
0.12137587E-03
0.92521252E-04
0.70761715E-04
0.54444685E-04
0.41738607E-04
0.31994266E-04
0.24524528E-04
0.18757049E-04
0.14390624E-04
0.11062923E-04
0.84883404E-05
0.65035842E-05
0.49679475E-05
0.37946277E-05
0.28983447E-05
0.22156551E-05
0.16910468E-05
0.12894847E-05
0.98430053E-06
0.74990169E-06
0.57098583E-06
0.43587426E-06
0.33271641E-06
0.25256659E-06
0.19177379E-06
0.14529185E-06
0.11035610E-06
0.83757755E-07
0.63409352E-07
0.48025889E-07
0.36226144E-07
0.27267951E-07
0.20494886E-07
0.15356894E-07
0.11492126E-07
0.85991401E-08
0.64015100E-08
0.47448547E-08
0.35058949E-08
0.25851332E-08
0.19081436E-08
0.14070820E-08
0.10359624E-08
0.76276735E-09
0.56191385E-09
0.41398893E-09
0.30763589E-09
0.23016547E-09
0.17382740E-09
0.13376987E-09
0.10465660E-09
0.83920620E-10
0.69253041E-10
0.58818207E-10
0.51514553E-10
0.46559572E-10
