atomic number =   89
effective nuclear charge =   89
electron count =   46
net charge =   43
basis set = approximate basis set limit (UGBS)      
exchange correlation functional = PW91PW91            
cutoff radius (picometer) =  300
number of shells =   50
prepared by = Thomas A. Manz      
prepared date = July 2010           
net magnetization =    0
density in atomic units:
0.10833957E+06
0.24685797E+03
0.60241268E+02
0.27530489E+02
0.82014828E+01
0.17272192E+01
0.33028626E+00
0.67249879E-01
0.12603133E-01
0.24259442E-02
0.47005291E-03
0.85087428E-04
0.16315023E-04
0.28357911E-05
0.51076029E-06
0.10959216E-06
0.22054257E-07
0.58192051E-08
0.89063663E-08
0.13921097E-07
0.14362008E-07
0.10782180E-07
0.61006267E-08
0.24992248E-08
0.74645551E-09
0.55180088E-09
0.11500505E-08
0.18376984E-08
0.22479971E-08
0.22538695E-08
0.19338586E-08
0.14418021E-08
0.93789299E-09
0.51880922E-09
0.23768459E-09
0.98531572E-10
0.69250425E-10
0.11108610E-09
0.18682902E-09
0.26349398E-09
0.32118866E-09
0.35164557E-09
0.35225634E-09
0.32803921E-09
0.28608380E-09
0.23474436E-09
0.18072983E-09
0.13011771E-09
0.86854038E-10
0.53366343E-10
