atomic number =  106
effective nuclear charge =  106
electron count =   18
net charge =   88
basis set = approximate basis set limit (UGBS)      
exchange correlation functional = PW91PW91            
cutoff radius (picometer) =  500
number of shells =  100
prepared by = Thomas A. Manz      
prepared date = July 2010           
net magnetization =    0
density in atomic units:
0.12318075E+07
0.29168918E+03
0.10353169E+02
0.17766160E+00
0.17939972E-02
0.41861185E-04
0.59679833E-05
0.24095468E-05
0.30837880E-05
0.52418159E-06
0.23316562E-06
0.61019642E-06
0.42587234E-06
0.10027946E-06
0.85977554E-08
0.57170592E-07
0.10036533E-06
0.88002110E-07
0.47678544E-07
0.13829287E-07
0.11963853E-08
0.36684646E-08
0.10993582E-07
0.15911239E-07
0.16075980E-07
0.12655429E-07
0.79045535E-08
0.38040948E-08
0.11635113E-08
0.14056109E-09
0.28579059E-09
0.10162611E-08
0.18239756E-08
0.23981837E-08
0.26202369E-08
0.24979248E-08
0.21234203E-08
0.16217844E-08
0.11128426E-08
0.66588035E-09
0.33006023E-09
0.11969709E-09
0.22571823E-10
0.15033978E-10
0.65694263E-10
0.14857110E-09
0.23689559E-09
0.31237854E-09
0.36750836E-09
0.39666129E-09
0.39979381E-09
0.38016662E-09
0.34390987E-09
0.29700276E-09
0.24466898E-09
0.19166432E-09
0.14176706E-09
0.98257076E-10
0.62762101E-10
0.35866362E-10
0.17182799E-10
0.60322337E-11
0.13649168E-11
0.18159995E-11
0.60635906E-11
0.12692463E-10
0.20645380E-10
0.29095237E-10
0.37110287E-10
0.44152994E-10
0.49758437E-10
0.53826537E-10
0.56318079E-10
0.57155884E-10
0.56671008E-10
0.54856123E-10
0.51958635E-10
0.48267175E-10
0.44028323E-10
0.39459224E-10
0.34682601E-10
0.29886163E-10
0.25239845E-10
0.20863840E-10
0.16890418E-10
0.13344520E-10
0.10214350E-10
0.75489059E-11
0.53354560E-11
0.35433993E-11
0.21834453E-11
0.11941134E-11
0.53864004E-12
0.18488531E-12
0.80440395E-13
0.18367066E-12
0.45019920E-12
0.84482573E-12
0.13325450E-11
0.18791407E-11
