atomic number =   74
effective nuclear charge =   74
electron count =    2
net charge =   72
basis set = approximate basis set limit (UGBS)      
exchange correlation functional = PW91PW91            
cutoff radius (picometer) =  500
number of shells =  100
prepared by = Thomas A. Manz      
prepared date = July 2010           
net magnetization =    0
density in atomic units:
0.35801028E+06
0.22985088E-01
0.61866020E-04
0.11868449E-04
0.30258643E-05
0.25255242E-05
0.71215328E-06
0.27137364E-06
0.38102772E-06
0.64368756E-07
0.26191382E-07
0.73589511E-07
0.51792814E-07
0.12001530E-07
0.75475465E-09
0.67184480E-08
0.12041207E-07
0.10575785E-07
0.56995617E-08
0.16123005E-08
0.99930397E-10
0.41325454E-09
0.13069805E-08
0.19030013E-08
0.19218573E-08
0.15081754E-08
0.93626962E-09
0.44453102E-09
0.12996333E-09
0.10209181E-10
0.30312600E-10
0.11981564E-09
0.21759017E-09
0.28655858E-09
0.31277875E-09
0.29758734E-09
0.25224622E-09
0.19186235E-09
0.13087946E-09
0.77539739E-10
0.37680570E-10
0.12909335E-10
0.17002260E-11
0.11563539E-11
0.74993171E-11
0.17608926E-10
0.28275483E-10
0.37345932E-10
0.43915527E-10
0.47339556E-10
0.47628169E-10
0.45210221E-10
0.40807899E-10
0.35154171E-10
0.28869478E-10
0.22533324E-10
0.16586014E-10
0.11415163E-10
0.72124355E-11
0.40426039E-11
0.18561793E-11
0.56956832E-12
0.52974166E-13
0.14239636E-12
0.67893629E-12
0.14930874E-11
0.24593739E-11
0.34759233E-11
0.44374387E-11
0.52812936E-11
0.59490407E-11
0.64307244E-11
0.67176134E-11
0.68186390E-11
0.67423016E-11
0.65173839E-11
0.61692149E-11
0.57241590E-11
0.52117356E-11
0.46634658E-11
0.40912742E-11
0.35192895E-11
0.29652875E-11
0.24451055E-11
0.19724660E-11
0.15518944E-11
0.11824934E-11
0.86811678E-12
0.60793812E-12
0.39793169E-12
0.23934858E-12
0.12497970E-12
0.50163812E-13
0.11005916E-13
0.12679715E-14
0.15940733E-13
0.49748505E-13
0.98557779E-13
0.15826656E-12
0.22442423E-12
