atomic number =   76
effective nuclear charge =   76
electron count =   48
net charge =   28
basis set = approximate basis set limit (UGBS)      
exchange correlation functional = PW91PW91            
cutoff radius (picometer) =  500
number of shells =  100
prepared by = Thomas A. Manz      
prepared date = July 2010           
net magnetization =    0
density in atomic units:
0.46015397E+06
0.52000537E+03
0.98017212E+02
0.33598461E+02
0.21394775E+02
0.11640412E+02
0.53992481E+01
0.23206983E+01
0.10927963E+01
0.57254535E+00
0.32792243E+00
0.20379910E+00
0.12733877E+00
0.78649960E-01
0.49670674E-01
0.31276792E-01
0.19096961E-01
0.11689803E-01
0.71201152E-02
0.42465022E-02
0.25477966E-02
0.15417191E-02
0.91744028E-03
0.54302078E-03
0.32360601E-03
0.19199551E-03
0.11363457E-03
0.68004680E-04
0.40453095E-04
0.24215771E-04
0.14650981E-04
0.88170937E-05
0.53486747E-05
0.32601158E-05
0.19853826E-05
0.12011136E-05
0.72191443E-06
0.43164064E-06
0.25778959E-06
0.15169655E-06
0.87904787E-07
0.50161756E-07
0.27911032E-07
0.15365094E-07
0.82230081E-08
0.41980721E-08
0.20937854E-08
0.10486706E-08
0.53819077E-09
0.31049988E-09
0.21726043E-09
0.17933036E-09
0.15945927E-09
0.14147734E-09
0.12058203E-09
0.97108953E-10
0.73138315E-10
0.51293358E-10
0.33440899E-10
0.20596599E-10
0.12954499E-10
0.10247053E-10
0.11771827E-10
0.16578582E-10
0.23657451E-10
0.31833876E-10
0.40380459E-10
0.48604166E-10
0.55848458E-10
0.61681334E-10
0.65853857E-10
0.68281686E-10
0.69036568E-10
0.68299234E-10
0.65955047E-10
0.62679556E-10
0.58371606E-10
0.53399327E-10
0.48029736E-10
0.42514225E-10
0.36896750E-10
0.31421026E-10
0.26223808E-10
0.21418379E-10
0.17128557E-10
0.13364656E-10
0.10097881E-10
0.73632107E-11
0.51439161E-11
0.33896544E-11
0.21053309E-11
0.12212872E-11
0.69215797E-12
0.47685770E-12
0.51823856E-12
0.76994601E-12
0.11809245E-11
0.17156884E-11
0.23368629E-11
0.30050018E-11
