atomic number =   81
effective nuclear charge =   81
electron count =   78
net charge =    3
basis set = approximate basis set limit (UGBS)      
exchange correlation functional = PW91PW91            
cutoff radius (picometer) =  300
number of shells =   50
prepared by = Thomas A. Manz      
prepared date = July 2010           
net magnetization =    0
density in atomic units:
0.81264711E+05
0.27999704E+03
0.80215775E+02
0.44482674E+02
0.18980982E+02
0.74614115E+01
0.39425538E+01
0.26669695E+01
0.18842471E+01
0.13278036E+01
0.90772349E+00
0.60781038E+00
0.41533601E+00
0.28098229E+00
0.19157121E+00
0.13075703E+00
0.89423247E-01
0.62702037E-01
0.43889087E-01
0.30864177E-01
0.21837804E-01
0.15506325E-01
0.11089573E-01
0.79601267E-02
0.57219700E-02
0.41212481E-02
0.29807980E-02
0.21786268E-02
0.15857092E-02
0.11531743E-02
0.84289466E-03
0.61547797E-03
0.45143956E-03
0.33086879E-03
0.24285486E-03
0.17943257E-03
0.13316060E-03
0.98866360E-04
0.73240015E-04
0.54555338E-04
0.40843464E-04
0.30461901E-04
0.22810875E-04
0.17125769E-04
0.12834505E-04
0.96441408E-05
0.72318935E-05
0.54203388E-05
0.40602927E-05
0.30478382E-05
