atomic number =   98
effective nuclear charge =   98
electron count =   60
net charge =   38
basis set = approximate basis set limit (UGBS)      
exchange correlation functional = PW91PW91            
cutoff radius (picometer) =  300
number of shells =   50
prepared by = Thomas A. Manz      
prepared date = July 2010           
net magnetization =    0
density in atomic units:
0.14389650E+06
0.31856659E+03
0.11371426E+03
0.36195976E+02
0.81060228E+01
0.13854035E+01
0.23233575E+00
0.45201793E-01
0.82522528E-02
0.15531771E-02
0.30991482E-03
0.63390558E-04
0.14503234E-04
0.30526714E-05
0.61199660E-06
0.11914887E-06
0.18436134E-07
0.46416173E-08
0.85011527E-08
0.12766464E-07
0.12793590E-07
0.96341175E-08
0.57867227E-08
0.29141283E-08
0.15139408E-08
0.12908538E-08
0.16348198E-08
0.20222295E-08
0.21912312E-08
0.20687312E-08
0.17291951E-08
0.12903941E-08
0.87005042E-09
0.53267390E-09
0.31063707E-09
0.20047047E-09
0.17345800E-09
0.19802782E-09
0.24555880E-09
0.29175276E-09
0.32276598E-09
0.33291891E-09
0.32180436E-09
0.29342526E-09
0.25336358E-09
0.20811500E-09
0.16247342E-09
0.12081258E-09
0.85772681E-10
0.58863116E-10
