atomic number =   94
effective nuclear charge =   94
electron count =   18
net charge =   76
basis set = approximate basis set limit (UGBS)      
exchange correlation functional = PW91PW91            
cutoff radius (picometer) =  300
number of shells =   50
prepared by = Thomas A. Manz      
prepared date = July 2010           
net magnetization =    0
density in atomic units:
0.12571270E+06
0.10818777E+03
0.45963392E+01
0.89698054E-01
0.14917826E-02
0.26301050E-04
0.21127205E-05
0.10542245E-05
0.10617262E-06
0.33555554E-06
0.24060779E-06
0.39743608E-07
0.17947297E-07
0.53607756E-07
0.54259605E-07
0.27646816E-07
0.63809700E-08
0.14008424E-08
0.50500750E-08
0.89413934E-08
0.93459667E-08
0.69097648E-08
0.37486378E-08
0.13759116E-08
0.28948177E-09
0.25382405E-09
0.72384715E-09
0.12174172E-08
0.14960897E-08
0.14868654E-08
0.12550422E-08
0.91296154E-09
0.57122762E-09
0.29441374E-09
0.11547769E-09
0.33817026E-10
0.25243162E-10
0.62198670E-10
0.11900241E-09
0.17339553E-09
0.21268304E-09
0.23208860E-09
0.23083876E-09
0.21275789E-09
0.18301217E-09
0.14766890E-09
0.11121921E-09
0.77609086E-10
0.49490041E-10
0.28245116E-10
