atomic number =   63
effective nuclear charge =   63
electron count =    2
net charge =   61
basis set = approximate basis set limit (UGBS)      
exchange correlation functional = PW91PW91            
cutoff radius (picometer) =  300
number of shells =   50
prepared by = Thomas A. Manz      
prepared date = July 2010           
net magnetization =    0
density in atomic units:
0.30705545E+05
0.39141404E-03
0.14903331E-04
0.49692894E-05
0.11417706E-05
0.30054892E-06
0.21904590E-06
0.11449799E-06
0.87106811E-08
0.39281758E-07
0.26156961E-07
0.31635641E-08
0.18677393E-08
0.62962533E-08
0.60963963E-08
0.28618652E-08
0.49789961E-09
0.80684126E-10
0.59394273E-09
0.10487841E-08
0.10614737E-08
0.75106937E-09
0.37926942E-09
0.11693806E-09
0.10186268E-10
0.22151784E-10
0.85341727E-10
0.14430136E-09
0.17406994E-09
0.16896767E-09
0.13876987E-09
0.97410913E-10
0.57814861E-10
0.27037530E-10
0.82559081E-11
0.79630264E-12
0.14766540E-11
0.69317750E-11
0.14148949E-10
0.20611610E-10
0.24996174E-10
0.26888406E-10
0.26328460E-10
0.23867387E-10
0.20151623E-10
0.15907020E-10
0.11648147E-10
0.78271140E-11
0.47103120E-11
0.24303402E-11
