atomic number =   98
effective nuclear charge =   98
electron count =   68
net charge =   30
basis set = approximate basis set limit (UGBS)      
exchange correlation functional = PW91PW91            
cutoff radius (picometer) =  300
number of shells =   50
prepared by = Thomas A. Manz      
prepared date = July 2010           
net magnetization =    0
density in atomic units:
0.14426333E+06
0.32425110E+03
0.11722922E+03
0.37237080E+02
0.11916378E+02
0.49530444E+01
0.22429647E+01
0.98682940E+00
0.39001682E+00
0.14610377E+00
0.51244829E-01
0.17165473E-01
0.62015243E-02
0.21977341E-02
0.77809277E-03
0.26925330E-03
0.87773318E-04
0.29210449E-04
0.91080201E-05
0.27243921E-05
0.79496033E-06
0.22692186E-06
0.65037796E-07
0.19485389E-07
0.82227185E-08
0.76751379E-08
0.10050882E-07
0.12273446E-07
0.13207104E-07
0.12547542E-07
0.10649905E-07
0.80972198E-08
0.55288760E-08
0.33432301E-08
0.17876619E-08
0.91036717E-09
0.58708932E-09
0.65220013E-09
0.93731389E-09
0.12821638E-08
0.15768686E-08
0.17675571E-08
0.18213294E-08
0.17524744E-08
0.15849001E-08
0.13559321E-08
0.10967502E-08
0.83884483E-09
0.60537753E-09
0.41213075E-09
