atomic number =  106
effective nuclear charge =  106
electron count =   68
net charge =   38
basis set = approximate basis set limit (UGBS)      
exchange correlation functional = PW91PW91            
cutoff radius (picometer) =  400
number of shells =   75
prepared by = Thomas A. Manz      
prepared date = July 2010           
net magnetization =    0
density in atomic units:
0.17960711E+06
0.45732776E+03
0.17226230E+03
0.56959084E+02
0.17727547E+02
0.73458591E+01
0.33101604E+01
0.13467588E+01
0.49081641E+00
0.17184134E+00
0.58654081E-01
0.19561384E-01
0.62868916E-02
0.20495185E-02
0.67684893E-03
0.22699831E-03
0.75636926E-04
0.25114285E-04
0.81492135E-05
0.25513448E-05
0.74366102E-06
0.21705489E-06
0.76966828E-07
0.41714109E-07
0.26672586E-07
0.15217180E-07
0.68528934E-08
0.25354274E-08
0.18057257E-08
0.33006640E-08
0.53951950E-08
0.70607591E-08
0.77851530E-08
0.74740205E-08
0.64186212E-08
0.49702922E-08
0.34501222E-08
0.21471220E-08
0.11918381E-08
0.58971711E-09
0.31791811E-09
0.30390412E-09
0.44859469E-09
0.66662764E-09
0.88682789E-09
0.10639174E-08
0.11724902E-08
0.12047314E-08
0.11659848E-08
0.10699542E-08
0.93525954E-09
0.78056750E-09
0.62014383E-09
0.46906962E-09
0.33785630E-09
0.22874695E-09
0.14494281E-09
0.87273071E-10
0.52904982E-10
0.37978839E-10
0.38420912E-10
0.49873786E-10
0.68306812E-10
0.90281324E-10
0.11278641E-09
0.13351420E-09
0.15075409E-09
0.16378569E-09
0.17205141E-09
0.17528674E-09
0.17395853E-09
0.16864597E-09
0.15987388E-09
0.14868014E-09
0.13562268E-09
