atomic number =  106
effective nuclear charge =  106
electron count =   46
net charge =   60
basis set = approximate basis set limit (UGBS)      
exchange correlation functional = PW91PW91            
cutoff radius (picometer) =  400
number of shells =   75
prepared by = Thomas A. Manz      
prepared date = July 2010           
net magnetization =    0
density in atomic units:
0.17901703E+06
0.33152066E+03
0.10246712E+03
0.34937603E+02
0.70042219E+01
0.99624729E+00
0.12687163E+00
0.16694594E-01
0.20512212E-02
0.25152040E-03
0.27098551E-04
0.30603971E-05
0.42680057E-06
0.49597883E-07
0.62639565E-07
0.12536873E-06
0.12351882E-06
0.74821465E-07
0.29336215E-07
0.85104404E-08
0.76987154E-08
0.14674098E-07
0.19844261E-07
0.19738712E-07
0.15587835E-07
0.10008015E-07
0.52181792E-08
0.22566746E-08
0.10962461E-08
0.12349421E-08
0.19413595E-08
0.26716205E-08
0.31182898E-08
0.31571834E-08
0.28508154E-08
0.23267535E-08
0.17164313E-08
0.11508257E-08
0.70204259E-09
0.38743503E-09
0.21073471E-09
0.15264723E-09
0.17518870E-09
0.24346719E-09
0.32650227E-09
0.40230899E-09
0.45672346E-09
0.48316806E-09
0.48118942E-09
0.45423129E-09
0.40861126E-09
0.35160605E-09
0.28901331E-09
0.22724775E-09
0.17130934E-09
0.12265115E-09
0.83302476E-10
0.54199353E-10
0.34750074E-10
0.23644671E-10
0.19496179E-10
0.20708652E-10
0.25638179E-10
0.32848210E-10
0.41055319E-10
0.49184615E-10
0.56411972E-10
0.62301379E-10
0.66555740E-10
0.68939084E-10
0.69485029E-10
0.68418507E-10
0.65905573E-10
0.62184972E-10
0.57605143E-10
