atomic number =   95
effective nuclear charge =   95
electron count =   18
net charge =   77
basis set = approximate basis set limit (UGBS)      
exchange correlation functional = PW91PW91            
cutoff radius (picometer) =  300
number of shells =   50
prepared by = Thomas A. Manz      
prepared date = July 2010           
net magnetization =    0
density in atomic units:
0.12966209E+06
0.10688358E+03
0.42239408E+01
0.76953933E-01
0.11934205E-02
0.20763129E-04
0.21515400E-05
0.10897808E-05
0.10872853E-06
0.35069112E-06
0.24857766E-06
0.39838760E-07
0.18652619E-07
0.56100092E-07
0.56388153E-07
0.28439672E-07
0.63840915E-08
0.13831808E-08
0.52963078E-08
0.93573131E-08
0.97344683E-08
0.71571180E-08
0.38498151E-08
0.13877018E-08
0.27630206E-09
0.25813185E-09
0.75905154E-09
0.12762723E-08
0.15641145E-08
0.15493342E-08
0.13033536E-08
0.94405184E-09
0.58703287E-09
0.29939262E-09
0.11475661E-09
0.31813281E-10
0.24815034E-10
0.64791505E-10
0.12486506E-09
0.18184088E-09
0.22268472E-09
0.24256602E-09
0.24073113E-09
0.22137893E-09
0.19002158E-09
0.15291277E-09
0.11477225E-09
0.79773105E-10
0.50540339E-10
0.28547657E-10
