atomic number =   40
effective nuclear charge =   40
electron count =   30
net charge =   10
basis set = approximate basis set limit (UGBS)      
exchange correlation functional = PW91PW91            
cutoff radius (picometer) =  500
number of shells =  100
prepared by = Thomas A. Manz      
prepared date = July 2010           
net magnetization =    0
density in atomic units:
0.55752059E+05
0.25121182E+03
0.52969429E+02
0.29753149E+02
0.17101961E+02
0.90912046E+01
0.43711681E+01
0.19838440E+01
0.97657001E+00
0.53114718E+00
0.32072532E+00
0.21526971E+00
0.14929873E+00
0.10448103E+00
0.74842207E-01
0.53496514E-01
0.37319876E-01
0.25998943E-01
0.17967412E-01
0.12184015E-01
0.82780197E-02
0.56475950E-02
0.37999761E-02
0.25444855E-02
0.17116606E-02
0.11466224E-02
0.76594937E-03
0.51517261E-03
0.34414261E-03
0.23043723E-03
0.15508283E-03
0.10363485E-03
0.69498135E-04
0.46682959E-04
0.31300631E-04
0.20874821E-04
0.13872223E-04
0.92132159E-05
0.61453507E-05
0.40814566E-05
0.27051788E-05
0.17931014E-05
0.11839949E-05
0.78886711E-06
0.52475161E-06
0.34523416E-06
0.22786197E-06
0.15168736E-06
0.10034260E-06
0.66317106E-07
0.43837662E-07
0.28894314E-07
0.19159096E-07
0.12769041E-07
0.85131520E-08
0.56853180E-08
0.38076760E-08
0.25693825E-08
0.17544453E-08
0.12154658E-08
0.85503543E-09
0.61290595E-09
0.44997300E-09
0.33839545E-09
0.26105149E-09
0.20760797E-09
0.16936133E-09
0.14123643E-09
0.12036332E-09
0.10459637E-09
0.92018830E-10
0.81858985E-10
0.73247228E-10
0.65731080E-10
0.58898976E-10
0.52665500E-10
0.46847616E-10
0.41352709E-10
0.36242325E-10
0.31483861E-10
0.26994474E-10
0.22762490E-10
0.18940054E-10
0.15518219E-10
0.12502652E-10
0.98636793E-11
0.76184146E-11
0.57240189E-11
0.41825844E-11
0.29514525E-11
0.20351830E-11
0.13793774E-11
0.95611713E-12
0.74434995E-12
0.70388817E-12
0.80278096E-12
0.10119347E-11
0.13098450E-11
0.16676393E-11
0.20651402E-11
