atomic number =   96
effective nuclear charge =   96
electron count =   62
net charge =   34
basis set = approximate basis set limit (UGBS)      
exchange correlation functional = PW91PW91            
cutoff radius (picometer) =  300
number of shells =   50
prepared by = Thomas A. Manz      
prepared date = July 2010           
net magnetization =    0
density in atomic units:
0.13590961E+06
0.31458038E+03
0.11186622E+03
0.38620609E+02
0.10338650E+02
0.26570563E+01
0.81210238E+00
0.28426877E+00
0.94821453E-01
0.31157348E-01
0.98146014E-02
0.29746834E-02
0.97899721E-03
0.31277191E-03
0.98388729E-04
0.29698993E-04
0.81268572E-05
0.21884489E-05
0.51502923E-06
0.11165173E-06
0.28680757E-07
0.12171857E-07
0.67891244E-08
0.40088199E-08
0.33138556E-08
0.41613943E-08
0.54664167E-08
0.63136723E-08
0.63367271E-08
0.55594076E-08
0.43061141E-08
0.29283769E-08
0.17390108E-08
0.87740087E-09
0.39017686E-09
0.22785825E-09
0.28478661E-09
0.45971216E-09
0.66672196E-09
0.83710289E-09
0.93823671E-09
0.96198516E-09
0.91433183E-09
0.81351920E-09
0.67979394E-09
0.53509563E-09
0.39445744E-09
0.27097266E-09
0.17182938E-09
0.10016605E-09
