atomic number =   65
effective nuclear charge =   65
electron count =   54
net charge =   11
basis set = approximate basis set limit (UGBS)      
exchange correlation functional = PW91PW91            
cutoff radius (picometer) =  400
number of shells =   75
prepared by = Thomas A. Manz      
prepared date = July 2010           
net magnetization =    0
density in atomic units:
0.40253117E+05
0.29367035E+03
0.87283600E+02
0.24959242E+02
0.15886548E+02
0.10573778E+02
0.59772110E+01
0.30699434E+01
0.16077218E+01
0.96583647E+00
0.67252243E+00
0.51299381E+00
0.40556893E+00
0.32367542E+00
0.25623178E+00
0.19990560E+00
0.15337504E+00
0.11624863E+00
0.87635525E-01
0.65715976E-01
0.49050137E-01
0.36395378E-01
0.26817298E-01
0.19751804E-01
0.14542571E-01
0.10694903E-01
0.78663109E-02
0.57996185E-02
0.42431355E-02
0.31050164E-02
0.22953490E-02
0.16953899E-02
0.12426726E-02
0.90911513E-03
0.67091576E-03
0.49539848E-03
0.36415609E-03
0.26885330E-03
0.19961859E-03
0.14767675E-03
0.10891886E-03
0.80866674E-04
0.60120172E-04
0.44652577E-04
0.33237826E-04
0.24741399E-04
0.18435147E-04
0.13724355E-04
0.10185277E-04
0.75641647E-05
0.56188214E-05
0.41779190E-05
0.30973472E-05
0.22953091E-05
0.17070330E-05
0.12650806E-05
0.93487614E-06
0.69177912E-06
0.51272286E-06
0.37956602E-06
0.28059839E-06
0.20801249E-06
0.15422091E-06
0.11418319E-06
0.84513005E-07
0.62575900E-07
0.46452246E-07
0.34412587E-07
0.25453614E-07
0.18874905E-07
0.14031953E-07
0.10374737E-07
0.76503692E-08
0.56441616E-08
0.41689052E-08
