atomic number =   89
effective nuclear charge =   89
electron count =   80
net charge =    9
basis set = approximate basis set limit (UGBS)      
exchange correlation functional = PW91PW91            
cutoff radius (picometer) =  400
number of shells =   75
prepared by = Thomas A. Manz      
prepared date = July 2010           
net magnetization =    0
density in atomic units:
0.10863702E+06
0.43579422E+03
0.12672379E+03
0.69868919E+02
0.27755022E+02
0.11211324E+02
0.66115351E+01
0.45549650E+01
0.30689089E+01
0.19802525E+01
0.12532070E+01
0.78760242E+00
0.49692973E+00
0.32097533E+00
0.21127866E+00
0.14116795E+00
0.95255420E-01
0.65131903E-01
0.45245685E-01
0.31775687E-01
0.22448359E-01
0.15877681E-01
0.11188992E-01
0.78995554E-02
0.55769491E-02
0.39301589E-02
0.27667952E-02
0.19504656E-02
0.13611976E-02
0.94875944E-03
0.66844869E-03
0.47007066E-03
0.32744749E-03
0.22743740E-03
0.15953692E-03
0.11197739E-03
0.78159930E-04
0.54833155E-04
0.38720154E-04
0.27226903E-04
0.19072329E-04
0.13461125E-04
0.95134947E-05
0.67126193E-05
0.47464591E-05
0.33535052E-05
0.23704797E-05
0.16722541E-05
0.11735824E-05
0.82299647E-06
0.57609384E-06
0.40279301E-06
0.27978797E-06
0.19354550E-06
0.13393890E-06
0.91856947E-07
0.62397994E-07
0.42188258E-07
0.28372872E-07
0.18889660E-07
0.12429928E-07
0.81243430E-08
0.52542135E-08
0.33481613E-08
0.21100772E-08
0.13170961E-08
0.82233370E-09
0.51530197E-09
0.33026465E-09
0.22362162E-09
0.16381502E-09
0.13017137E-09
0.11141778E-09
0.10032915E-09
0.92473675E-10
