atomic number =   82
effective nuclear charge =   82
electron count =    2
net charge =   80
basis set = approximate basis set limit (UGBS)      
exchange correlation functional = PW91PW91            
cutoff radius (picometer) =  300
number of shells =   50
prepared by = Thomas A. Manz      
prepared date = July 2010           
net magnetization =    0
density in atomic units:
0.70133961E+05
0.39513232E-03
0.41339525E-04
0.13350810E-04
0.29583705E-05
0.80811253E-06
0.56360273E-06
0.30110732E-06
0.22324098E-07
0.10103848E-06
0.67954602E-07
0.83383718E-08
0.47331188E-08
0.16165748E-07
0.15725758E-07
0.74099606E-08
0.12991505E-08
0.20422139E-09
0.15189592E-08
0.26932034E-08
0.27310230E-08
0.19352429E-08
0.97883290E-09
0.30268318E-09
0.26603317E-10
0.56380262E-10
0.21852166E-09
0.37024334E-09
0.44708054E-09
0.43429718E-09
0.35690956E-09
0.25062924E-09
0.14886728E-09
0.69682156E-10
0.21325663E-10
0.20715593E-11
0.37601502E-11
0.17744545E-10
0.36281433E-10
0.52885508E-10
0.64171980E-10
0.69051855E-10
0.67631636E-10
0.61323328E-10
0.51785850E-10
0.40884279E-10
0.29946119E-10
0.20127934E-10
0.12116460E-10
0.62547116E-11
