atomic number =  102
effective nuclear charge =  102
electron count =   86
net charge =   16
basis set = approximate basis set limit (UGBS)      
exchange correlation functional = PW91PW91            
cutoff radius (picometer) =  500
number of shells =  100
prepared by = Thomas A. Manz      
prepared date = July 2010           
net magnetization =    0
density in atomic units:
0.11220821E+07
0.76005927E+03
0.20442247E+03
0.73639656E+02
0.24070358E+02
0.14040617E+02
0.90725584E+01
0.53038549E+01
0.30274093E+01
0.17718219E+01
0.11170012E+01
0.78455150E+00
0.58149493E+00
0.44316027E+00
0.34691495E+00
0.27162623E+00
0.20884797E+00
0.16023327E+00
0.12201615E+00
0.91533959E-01
0.68704896E-01
0.51669706E-01
0.38428523E-01
0.28457226E-01
0.21133753E-01
0.15634937E-01
0.11540204E-01
0.85585238E-02
0.63135070E-02
0.46668435E-02
0.34627081E-02
0.25569818E-02
0.18942014E-02
0.14062376E-02
0.10436147E-02
0.77241240E-03
0.57108427E-03
0.42278698E-03
0.31456506E-03
0.23372416E-03
0.17380208E-03
0.12948319E-03
0.96401403E-04
0.72369454E-04
0.54342683E-04
0.40560048E-04
0.30389481E-04
0.22926575E-04
0.17232998E-04
0.12955183E-04
0.97374432E-05
0.73042625E-05
0.54937923E-05
0.41415333E-05
0.31132242E-05
0.23358627E-05
0.17451541E-05
0.13030386E-05
0.97169254E-06
0.72450229E-06
0.53849135E-06
0.39930512E-06
0.29599909E-06
0.21879825E-06
0.16125638E-06
0.11911089E-06
0.87782823E-07
0.64296501E-07
0.47023477E-07
0.34318258E-07
0.25056625E-07
0.18294834E-07
0.13320425E-07
0.97095949E-08
0.70666113E-08
0.51506164E-08
0.37609227E-08
0.27422458E-08
0.20121638E-08
0.14854126E-08
0.10979389E-08
0.81218238E-09
0.60413552E-09
0.45150472E-09
0.33901668E-09
0.25498506E-09
0.19171487E-09
0.14356066E-09
0.10719047E-09
0.79269438E-10
0.58819019E-10
0.43725714E-10
0.33006632E-10
0.26287243E-10
0.22652442E-10
0.21531088E-10
0.22599379E-10
0.25425471E-10
0.29599677E-10
0.34780512E-10
