atomic number =  105
effective nuclear charge =  105
electron count =   80
net charge =   25
basis set = approximate basis set limit (UGBS)      
exchange correlation functional = PW91PW91            
cutoff radius (picometer) =  400
number of shells =   75
prepared by = Thomas A. Manz      
prepared date = July 2010           
net magnetization =    0
density in atomic units:
0.17514203E+06
0.46109149E+03
0.17702425E+03
0.58753708E+02
0.21587816E+02
0.12319303E+02
0.72337909E+01
0.37881150E+01
0.18730692E+01
0.95122898E+00
0.51117080E+00
0.28898513E+00
0.16936670E+00
0.10311083E+00
0.63886933E-01
0.39758623E-01
0.24598595E-01
0.15187851E-01
0.94095748E-02
0.58399322E-02
0.36162911E-02
0.22303245E-02
0.13623516E-02
0.83346374E-03
0.50983101E-03
0.31146265E-03
0.19033883E-03
0.11674989E-03
0.70764305E-04
0.42844895E-04
0.26357900E-04
0.16174095E-04
0.97935463E-05
0.58979476E-05
0.35961943E-05
0.21928399E-05
0.13250553E-05
0.80655417E-06
0.49608599E-06
0.30447032E-06
0.18693146E-06
0.11695252E-06
0.74235288E-07
0.47823391E-07
0.31477619E-07
0.21166509E-07
0.14558092E-07
0.10202260E-07
0.72299655E-08
0.51792304E-08
0.37170449E-08
0.26546212E-08
0.18611276E-08
0.12723569E-08
0.84420299E-09
0.53198163E-09
0.31372593E-09
0.17246181E-09
0.90160733E-10
0.51510126E-10
0.44576617E-10
0.59020587E-10
0.86303423E-10
0.11980726E-09
0.15429549E-09
0.18592806E-09
0.21199008E-09
0.23108218E-09
0.24375621E-09
0.24811259E-09
0.24538105E-09
0.23768953E-09
0.22450682E-09
0.20772585E-09
0.18861708E-09
