atomic number =   90
effective nuclear charge =   90
electron count =   86
net charge =    4
basis set = approximate basis set limit (UGBS)      
exchange correlation functional = PW91PW91            
cutoff radius (picometer) =  300
number of shells =   50
prepared by = Thomas A. Manz      
prepared date = July 2010           
net magnetization =    0
density in atomic units:
0.11236245E+06
0.30474835E+03
0.10711442E+03
0.43952099E+02
0.15581493E+02
0.77295833E+01
0.49418764E+01
0.31514144E+01
0.18975394E+01
0.11565900E+01
0.73543698E+00
0.50262058E+00
0.37479648E+00
0.28745684E+00
0.22419907E+00
0.17417428E+00
0.13391696E+00
0.10325051E+00
0.78369044E-01
0.58929760E-01
0.44024449E-01
0.32667071E-01
0.24180194E-01
0.17815059E-01
0.13047415E-01
0.95097795E-02
0.69198171E-02
0.50639575E-02
0.36769616E-02
0.26602524E-02
0.19308489E-02
0.13981293E-02
0.10158309E-02
0.73673425E-03
0.53442630E-03
0.38983711E-03
0.28520898E-03
0.20838823E-03
0.15158780E-03
0.11068138E-03
0.81080172E-04
0.59035250E-04
0.43083895E-04
0.31478132E-04
0.22917355E-04
0.16708842E-04
0.12138536E-04
0.88037768E-05
0.63724128E-05
0.46180735E-05
