atomic number =   90
effective nuclear charge =   90
electron count =   36
net charge =   54
basis set = approximate basis set limit (UGBS)      
exchange correlation functional = PW91PW91            
cutoff radius (picometer) =  300
number of shells =   50
prepared by = Thomas A. Manz      
prepared date = July 2010           
net magnetization =    0
density in atomic units:
0.11196036E+06
0.23403064E+03
0.35593273E+02
0.12665513E+02
0.31417296E+01
0.52580827E+00
0.76605044E-01
0.11769923E-01
0.16153960E-02
0.23033527E-03
0.34418044E-04
0.47089720E-05
0.63143091E-06
0.11410419E-06
0.72128358E-07
0.39354806E-07
0.10694006E-07
0.30682659E-08
0.78325497E-08
0.13360907E-07
0.14058279E-07
0.10613464E-07
0.59930976E-08
0.24221314E-08
0.69165412E-09
0.51833599E-09
0.11350511E-08
0.18347515E-08
0.22498485E-08
0.22549789E-08
0.19302056E-08
0.14332744E-08
0.92565822E-09
0.50497206E-09
0.22442080E-09
0.87451636E-10
0.61101312E-10
0.10596419E-09
0.18433610E-09
0.26283759E-09
0.32159908E-09
0.35224998E-09
0.35282668E-09
0.32809855E-09
0.28537572E-09
0.23342911E-09
0.17893872E-09
0.12796729E-09
0.84579163E-10
0.51132914E-10
