atomic number =   84
effective nuclear charge =   84
electron count =    4
net charge =   80
basis set = approximate basis set limit (UGBS)      
exchange correlation functional = PW91PW91            
cutoff radius (picometer) =  300
number of shells =   50
prepared by = Thomas A. Manz      
prepared date = July 2010           
net magnetization =    0
density in atomic units:
0.86731578E+05
0.17119360E+01
0.16471633E-02
0.20277279E-04
0.54967959E-05
0.13957341E-05
0.10548000E-05
0.54044938E-06
0.42316628E-07
0.18930673E-06
0.12484239E-06
0.14893803E-07
0.91488115E-08
0.30417421E-07
0.29310300E-07
0.13705193E-07
0.23650628E-08
0.39671960E-09
0.28834495E-08
0.50691424E-08
0.51192077E-08
0.36164378E-08
0.18228062E-08
0.56013494E-09
0.48324549E-10
0.10821213E-09
0.41391660E-09
0.69826989E-09
0.84128254E-09
0.81598950E-09
0.66968114E-09
0.46979626E-09
0.27859762E-09
0.13013171E-09
0.39635076E-10
0.37915495E-11
0.72133419E-11
0.33646544E-10
0.68530910E-10
0.99739376E-10
0.12089042E-09
0.12996250E-09
0.12724320E-09
0.11532318E-09
0.97337201E-10
0.76814680E-10
0.56234604E-10
0.37772487E-10
0.22721795E-10
0.11715765E-10
