atomic number =   84
effective nuclear charge =   84
electron count =   12
net charge =   72
basis set = approximate basis set limit (UGBS)      
exchange correlation functional = PW91PW91            
cutoff radius (picometer) =  300
number of shells =   50
prepared by = Thomas A. Manz      
prepared date = July 2010           
net magnetization =    0
density in atomic units:
0.89523023E+05
0.33543346E+02
0.24442360E+01
0.81835710E-01
0.22076257E-02
0.38547831E-04
0.20399725E-05
0.65536597E-06
0.47842949E-07
0.20730923E-06
0.13814808E-06
0.16821394E-07
0.10233829E-07
0.33753778E-07
0.32572508E-07
0.15277104E-07
0.26737665E-08
0.46815990E-09
0.32205254E-08
0.56484080E-08
0.57064020E-08
0.40360040E-08
0.20394462E-08
0.63169980E-09
0.59194614E-10
0.12380476E-09
0.46314352E-09
0.77956991E-09
0.93902264E-09
0.91126262E-09
0.74839734E-09
0.52573573E-09
0.31236660E-09
0.14654826E-09
0.45280540E-10
0.49712521E-11
0.85209608E-11
0.37814241E-10
0.76644080E-10
0.11143233E-09
0.13500555E-09
0.14513669E-09
0.14217877E-09
0.12892430E-09
0.10891994E-09
0.86038739E-10
0.63044084E-10
0.42416938E-10
0.25587511E-10
0.13263341E-10
