atomic number =   93
effective nuclear charge =   93
electron count =   12
net charge =   81
basis set = approximate basis set limit (UGBS)      
exchange correlation functional = PW91PW91            
cutoff radius (picometer) =  300
number of shells =   50
prepared by = Thomas A. Manz      
prepared date = July 2010           
net magnetization =    0
density in atomic units:
0.12162813E+06
0.30056847E+02
0.11693738E+01
0.20555012E-01
0.27978580E-03
0.42912225E-05
0.18500515E-05
0.88860742E-06
0.72205289E-07
0.31124682E-06
0.20509049E-06
0.24896567E-07
0.15359500E-07
0.50150426E-07
0.48299729E-07
0.22645775E-07
0.39755754E-08
0.70367612E-09
0.47713047E-08
0.83621128E-08
0.84482545E-08
0.59773932E-08
0.30232492E-08
0.93885899E-09
0.89772842E-10
0.18353456E-09
0.68450234E-09
0.11522805E-08
0.13882870E-08
0.13478134E-08
0.11074189E-08
0.77822054E-09
0.46282758E-09
0.21746097E-09
0.67475241E-10
0.76364505E-11
0.12682392E-10
0.55849270E-10
0.11317706E-09
0.16458637E-09
0.19943648E-09
0.21452758E-09
0.21021483E-09
0.19067223E-09
0.16109795E-09
0.12728137E-09
0.93322523E-10
0.62832274E-10
0.37929264E-10
0.19689568E-10
