atomic number =   90
effective nuclear charge =   90
electron count =   18
net charge =   72
basis set = approximate basis set limit (UGBS)      
exchange correlation functional = PW91PW91            
cutoff radius (picometer) =  300
number of shells =   50
prepared by = Thomas A. Manz      
prepared date = July 2010           
net magnetization =    0
density in atomic units:
0.11051033E+06
0.11226929E+03
0.63571720E+01
0.16323252E+00
0.35766945E-02
0.69702262E-04
0.22535494E-05
0.89956177E-06
0.90271428E-07
0.28331317E-06
0.21082020E-06
0.37824034E-07
0.15247521E-07
0.44964832E-07
0.46617380E-07
0.24544560E-07
0.61482042E-08
0.13902757E-08
0.41953796E-08
0.74954416E-08
0.79638465E-08
0.60021237E-08
0.33477674E-08
0.12990764E-08
0.31665942E-09
0.23309457E-09
0.60182853E-09
0.10137796E-08
0.12582217E-08
0.12645236E-08
0.10804166E-08
0.79765716E-09
0.50930415E-09
0.27142377E-09
0.11396721E-09
0.38435949E-10
0.25654459E-10
0.52955702E-10
0.98785626E-10
0.14417695E-09
0.17792763E-09
0.19547576E-09
0.19580884E-09
0.18180325E-09
0.15765038E-09
0.12836962E-09
0.97756060E-10
0.69234410E-10
0.45063744E-10
0.26551435E-10
