atomic number =   74
effective nuclear charge =   74
electron count =   10
net charge =   64
basis set = approximate basis set limit (UGBS)      
exchange correlation functional = PW91PW91            
cutoff radius (picometer) =  400
number of shells =   75
prepared by = Thomas A. Manz      
prepared date = July 2010           
net magnetization =    0
density in atomic units:
0.58632355E+05
0.24558109E+02
0.16764523E+00
0.60331140E-03
0.66034590E-05
0.32822618E-05
0.26033806E-06
0.61504568E-06
0.27649608E-06
0.22466557E-07
0.10016853E-06
0.92029524E-07
0.26971422E-07
0.19637967E-08
0.10229357E-07
0.18432296E-07
0.15374246E-07
0.72885560E-08
0.16449394E-08
0.19339780E-09
0.11669145E-08
0.24960869E-08
0.30318674E-08
0.26449207E-08
0.17815295E-08
0.90738567E-09
0.30710087E-09
0.44896923E-10
0.44834914E-10
0.18222511E-09
0.33718095E-09
0.44524276E-09
0.48015164E-09
0.44409004E-09
0.36334835E-09
0.26367408E-09
0.16633812E-09
0.88766904E-10
0.36918493E-10
0.91636611E-11
0.20908355E-11
0.94342555E-11
0.24442023E-10
0.41639955E-10
0.56770217E-10
0.67538995E-10
0.72919899E-10
0.72954351E-10
0.68487306E-10
0.60711311E-10
0.50986784E-10
0.40608919E-10
0.30439137E-10
0.21337276E-10
0.13843356E-10
0.79993503E-11
0.38757938E-11
0.14026703E-11
0.32194026E-12
0.33543619E-12
0.11500156E-11
0.24678326E-11
0.40417530E-11
0.56785726E-11
0.71979289E-11
0.84837927E-11
0.94649158E-11
0.10122166E-10
0.10441371E-10
0.10446087E-10
0.10178580E-10
0.96705317E-11
0.89795341E-11
0.81567947E-11
0.72654304E-11
