atomic number =  106
effective nuclear charge =  106
electron count =   86
net charge =   20
basis set = approximate basis set limit (UGBS)      
exchange correlation functional = PW91PW91            
cutoff radius (picometer) =  500
number of shells =  100
prepared by = Thomas A. Manz      
prepared date = July 2010           
net magnetization =    0
density in atomic units:
0.12479714E+07
0.78589813E+03
0.22042091E+03
0.69071854E+02
0.23911840E+02
0.14763936E+02
0.90160713E+01
0.48899560E+01
0.27072392E+01
0.16306950E+01
0.10906912E+01
0.79941851E+00
0.59770274E+00
0.44478619E+00
0.33349192E+00
0.24741291E+00
0.17860764E+00
0.12839578E+00
0.91487117E-01
0.64028136E-01
0.44880018E-01
0.31562116E-01
0.21907868E-01
0.15133285E-01
0.10494948E-01
0.72487583E-02
0.49951673E-02
0.34652157E-02
0.23905297E-02
0.16543709E-02
0.11512855E-02
0.79692801E-03
0.55396825E-03
0.38602392E-03
0.26877320E-03
0.18635325E-03
0.12887208E-03
0.89124173E-04
0.61909413E-04
0.42860407E-04
0.29640052E-04
0.20513407E-04
0.14162063E-04
0.98665332E-05
0.68712029E-05
0.47446897E-05
0.32902408E-05
0.23017860E-05
0.16028579E-05
0.11164631E-05
0.77809943E-06
0.54085359E-06
0.37764136E-06
0.26436419E-06
0.18455562E-06
0.12854265E-06
0.89109982E-07
0.61740039E-07
0.42742030E-07
0.29622463E-07
0.20498996E-07
0.14182174E-07
0.98526138E-08
0.68624488E-08
0.48094191E-08
0.34261376E-08
0.24853868E-08
0.18340512E-08
0.13875735E-08
0.10833200E-08
0.87558777E-09
0.72981909E-09
0.62463340E-09
0.54830923E-09
0.48611765E-09
0.43605972E-09
0.39312206E-09
0.35401249E-09
0.31849604E-09
0.28497180E-09
0.25339023E-09
0.22293487E-09
0.19430146E-09
0.16754827E-09
0.14301110E-09
0.12050352E-09
0.10019216E-09
0.82059554E-10
0.66143806E-10
0.52264602E-10
0.40685517E-10
0.31104758E-10
0.23277096E-10
0.17291257E-10
0.12872717E-10
0.98074621E-11
0.79548972E-11
0.70985986E-11
0.70750836E-11
0.77351849E-11
