atomic number =  106
effective nuclear charge =  106
electron count =   60
net charge =   46
basis set = approximate basis set limit (UGBS)      
exchange correlation functional = PW91PW91            
cutoff radius (picometer) =  500
number of shells =  100
prepared by = Thomas A. Manz      
prepared date = July 2010           
net magnetization =    0
density in atomic units:
0.12438122E+07
0.76853717E+03
0.20103259E+03
0.67048889E+02
0.14306985E+02
0.31805727E+01
0.63325596E+00
0.10937174E+00
0.20623848E-01
0.40989704E-02
0.74695994E-03
0.14299358E-03
0.28446502E-04
0.59218555E-05
0.14560555E-05
0.43934938E-06
0.21091601E-06
0.14452750E-06
0.87672532E-07
0.38176726E-07
0.11961958E-07
0.66584946E-08
0.11861737E-07
0.18185258E-07
0.20530283E-07
0.18439479E-07
0.13677379E-07
0.85416758E-08
0.44061834E-08
0.19796691E-08
0.11183677E-08
0.12968018E-08
0.19582405E-08
0.26437081E-08
0.30888025E-08
0.31911509E-08
0.29700722E-08
0.25214415E-08
0.19718964E-08
0.14141562E-08
0.92929892E-09
0.56005245E-09
0.31632488E-09
0.19248325E-09
0.15935137E-09
0.19044287E-09
0.25687361E-09
0.33293901E-09
0.40309983E-09
0.45480353E-09
0.48220089E-09
0.48424315E-09
0.46405402E-09
0.42637971E-09
0.37636530E-09
0.31956132E-09
0.26065169E-09
0.20440276E-09
0.15398903E-09
0.11135872E-09
0.77158037E-10
0.51636837E-10
0.34418732E-10
0.24428381E-10
0.20494368E-10
0.21271367E-10
0.25408904E-10
0.31780200E-10
0.39238036E-10
0.46900768E-10
0.53942781E-10
0.59968842E-10
0.64686721E-10
0.67739973E-10
0.69379003E-10
0.69397973E-10
0.68003311E-10
0.65415361E-10
0.61830881E-10
0.57504158E-10
0.52587872E-10
0.47319933E-10
0.41895477E-10
0.36504778E-10
0.31351886E-10
0.26528882E-10
0.22041117E-10
0.17997444E-10
0.14422566E-10
0.11308277E-10
0.87140373E-11
0.65817937E-11
0.48901109E-11
0.36246620E-11
0.27292825E-11
0.21683224E-11
0.18896727E-11
0.18480378E-11
0.20043847E-11
0.23133715E-11
