atomic number =  104
effective nuclear charge =  104
electron count =   62
net charge =   42
basis set = approximate basis set limit (UGBS)      
exchange correlation functional = PW91PW91            
cutoff radius (picometer) =  300
number of shells =   50
prepared by = Thomas A. Manz      
prepared date = July 2010           
net magnetization =    0
density in atomic units:
0.17048222E+06
0.33905115E+03
0.11830548E+03
0.30112103E+02
0.67055645E+01
0.15649052E+01
0.42017433E+00
0.12455700E+00
0.34038182E-01
0.89680394E-02
0.22333215E-02
0.53533033E-03
0.14764210E-03
0.41626070E-04
0.11998683E-04
0.32700364E-05
0.70514631E-06
0.10604820E-06
0.12723404E-07
0.27579427E-07
0.37345469E-07
0.29806486E-07
0.16268146E-07
0.59138832E-08
0.17032676E-08
0.23991422E-08
0.51888054E-08
0.77018631E-08
0.88693737E-08
0.84636831E-08
0.69405601E-08
0.49268785E-08
0.30157712E-08
0.15265992E-08
0.60704036E-09
0.22630464E-09
0.23602278E-09
0.47786947E-09
0.80924212E-09
0.11095088E-08
0.13140126E-08
0.13999928E-08
0.13691673E-08
0.12461127E-08
0.10606719E-08
0.84840140E-09
0.63363925E-09
0.43931109E-09
0.27889765E-09
0.15955504E-09
