atomic number =   95
effective nuclear charge =   95
electron count =   28
net charge =   67
basis set = approximate basis set limit (UGBS)      
exchange correlation functional = PW91PW91            
cutoff radius (picometer) =  300
number of shells =   50
prepared by = Thomas A. Manz      
prepared date = July 2010           
net magnetization =    0
density in atomic units:
0.13019911E+06
0.20749414E+03
0.82678604E+01
0.17835744E+00
0.35413678E-02
0.64367727E-04
0.30330989E-05
0.10990473E-05
0.12268588E-06
0.35203126E-06
0.25079760E-06
0.43474014E-07
0.20420071E-07
0.56335502E-07
0.56494713E-07
0.28889470E-07
0.69266162E-08
0.17499210E-08
0.54418794E-08
0.93800265E-08
0.97405062E-08
0.71967148E-08
0.39213388E-08
0.14679624E-08
0.34362566E-09
0.30217701E-09
0.78102652E-09
0.12837117E-08
0.15649579E-08
0.15500600E-08
0.13072586E-08
0.95178054E-09
0.59747057E-09
0.31084540E-09
0.12554367E-09
0.40824677E-10
0.31554113E-10
0.69249370E-10
0.12736474E-09
0.18296245E-09
0.22299575E-09
0.24258920E-09
0.24080382E-09
0.22172657E-09
0.19075415E-09
0.15401139E-09
0.11612605E-09
0.81296567E-10
0.52110555E-10
0.30067799E-10
