atomic number =   89
effective nuclear charge =   89
electron count =   80
net charge =    9
basis set = approximate basis set limit (UGBS)      
exchange correlation functional = PW91PW91            
cutoff radius (picometer) =  300
number of shells =   50
prepared by = Thomas A. Manz      
prepared date = July 2010           
net magnetization =    0
density in atomic units:
0.10863702E+06
0.30149411E+03
0.10402899E+03
0.44478260E+02
0.15688040E+02
0.73754544E+01
0.47447863E+01
0.31382530E+01
0.19400429E+01
0.11652496E+01
0.68384778E+00
0.40272671E+00
0.25120282E+00
0.15852438E+00
0.10256071E+00
0.67108974E-01
0.44184323E-01
0.29916402E-01
0.20170586E-01
0.13614756E-01
0.92051066E-02
0.62121130E-02
0.42001829E-02
0.28337673E-02
0.19027428E-02
0.12727913E-02
0.85109269E-03
0.57408068E-03
0.38394218E-03
0.25582072E-03
0.17125609E-03
0.11436739E-03
0.76731820E-04
0.51392391E-04
0.34441706E-04
0.23246846E-04
0.15753805E-04
0.10661702E-04
0.71757077E-05
0.48520378E-05
0.32921976E-05
0.22161989E-05
0.14947295E-05
0.10082449E-05
0.67582300E-06
0.45267723E-06
0.30097604E-06
0.19887568E-06
0.13051907E-06
0.85316643E-07
