atomic number =   89
effective nuclear charge =   89
electron count =   60
net charge =   29
basis set = approximate basis set limit (UGBS)      
exchange correlation functional = PW91PW91            
cutoff radius (picometer) =  300
number of shells =   50
prepared by = Thomas A. Manz      
prepared date = July 2010           
net magnetization =    0
density in atomic units:
0.10835817E+06
0.29587784E+03
0.96558464E+02
0.43556633E+02
0.13991927E+02
0.34709666E+01
0.83926815E+00
0.22501194E+00
0.58821999E-01
0.16179951E-01
0.45011654E-02
0.12107906E-02
0.35234509E-03
0.10045020E-03
0.29908564E-04
0.94321294E-05
0.30135257E-05
0.10343546E-05
0.34494226E-06
0.11680281E-06
0.42966509E-07
0.17425451E-07
0.71781217E-08
0.25565894E-08
0.80509605E-09
0.70007888E-09
0.13063979E-08
0.19471775E-08
0.23003692E-08
0.22672020E-08
0.19346740E-08
0.14504044E-08
0.96432584E-09
0.56386085E-09
0.29566474E-09
0.16119940E-09
0.12906756E-09
0.16245254E-09
0.22665783E-09
0.29139638E-09
0.33861497E-09
0.36073769E-09
0.35590755E-09
0.32883074E-09
0.28614339E-09
0.23545377E-09
0.18301549E-09
0.13427014E-09
0.92769015E-10
0.60634608E-10
