atomic number =  100
effective nuclear charge =  100
electron count =   30
net charge =   70
basis set = approximate basis set limit (UGBS)      
exchange correlation functional = PW91PW91            
cutoff radius (picometer) =  300
number of shells =   50
prepared by = Thomas A. Manz      
prepared date = July 2010           
net magnetization =    0
density in atomic units:
0.15221722E+06
0.19685350E+03
0.13700140E+02
0.21305342E+01
0.27301848E+00
0.22942122E-01
0.16665076E-02
0.13621135E-03
0.93681601E-05
0.12375832E-05
0.41742317E-06
0.59085320E-07
0.23987800E-07
0.73282465E-07
0.72892092E-07
0.35700179E-07
0.72282704E-08
0.14515340E-08
0.70691555E-08
0.12434509E-07
0.12739132E-07
0.91774996E-08
0.47806701E-08
0.16010986E-08
0.24275065E-09
0.31125347E-09
0.10229274E-08
0.17154114E-08
0.20795168E-08
0.20353801E-08
0.16887400E-08
0.12022211E-08
0.72940926E-09
0.35623657E-09
0.12336016E-09
0.25421153E-10
0.26081790E-10
0.85932921E-10
0.16914435E-09
0.24543509E-09
0.29834554E-09
0.32244626E-09
0.31739839E-09
0.28944142E-09
0.24610866E-09
0.19595094E-09
0.14511117E-09
0.99072112E-10
0.61161604E-10
0.33066442E-10
