atomic number =   94
effective nuclear charge =   94
electron count =   12
net charge =   82
basis set = approximate basis set limit (UGBS)      
exchange correlation functional = PW91PW91            
cutoff radius (picometer) =  300
number of shells =   50
prepared by = Thomas A. Manz      
prepared date = July 2010           
net magnetization =    0
density in atomic units:
0.12550662E+06
0.29583616E+02
0.10688930E+01
0.17522616E-01
0.21951536E-03
0.36874476E-05
0.19214094E-05
0.93007179E-06
0.76117125E-07
0.32662666E-06
0.21505606E-06
0.26129836E-07
0.16145425E-07
0.52609792E-07
0.50658759E-07
0.23755426E-07
0.41752455E-08
0.74265483E-09
0.50066205E-08
0.87711891E-08
0.88617158E-08
0.62702123E-08
0.31722454E-08
0.98594100E-09
0.95026001E-10
0.19295508E-09
0.71808776E-09
0.12085957E-08
0.14562661E-08
0.14138078E-08
0.11618795E-08
0.81650797E-09
0.48569920E-09
0.22831918E-09
0.70957698E-10
0.81303055E-11
0.13368300E-10
0.58598966E-10
0.11871444E-09
0.17263370E-09
0.20920485E-09
0.22504054E-09
0.22050585E-09
0.20002830E-09
0.16900938E-09
0.13353831E-09
0.97934466E-10
0.65931594E-10
0.39813292E-10
0.20683077E-10
