atomic number =   63
effective nuclear charge =   63
electron count =   54
net charge =    9
basis set = approximate basis set limit (UGBS)      
exchange correlation functional = PW91PW91            
cutoff radius (picometer) =  400
number of shells =   75
prepared by = Thomas A. Manz      
prepared date = July 2010           
net magnetization =    0
density in atomic units:
0.36383742E+05
0.27736090E+03
0.89535652E+02
0.24982813E+02
0.14727080E+02
0.10338248E+02
0.62279735E+01
0.33363459E+01
0.17625258E+01
0.10310231E+01
0.69253379E+00
0.51661217E+00
0.40657136E+00
0.32696092E+00
0.26240245E+00
0.20808654E+00
0.16240923E+00
0.12518641E+00
0.95893808E-01
0.72996601E-01
0.55266239E-01
0.41567288E-01
0.31032953E-01
0.23137949E-01
0.17235136E-01
0.12815145E-01
0.95255030E-02
0.70930836E-02
0.52402890E-02
0.38710365E-02
0.28871705E-02
0.21512420E-02
0.15908472E-02
0.11742822E-02
0.87422365E-03
0.65129722E-03
0.48309713E-03
0.35990565E-03
0.26963392E-03
0.20133355E-03
0.14990593E-03
0.11233528E-03
0.84302468E-04
0.63201005E-04
0.47489495E-04
0.35686160E-04
0.26843296E-04
0.20176285E-04
0.15119337E-04
0.11339813E-04
0.85050815E-05
0.63878679E-05
0.47818507E-05
0.35796281E-05
0.26881003E-05
0.20119453E-05
0.15014506E-05
0.11216454E-05
0.83918701E-06
0.62687400E-06
0.46744631E-06
0.34932813E-06
0.26084879E-06
0.19443578E-06
0.14474249E-06
0.10771679E-06
0.80288203E-07
0.59673610E-07
0.44226390E-07
0.32824470E-07
0.24395845E-07
0.18012383E-07
0.13246348E-07
0.97342996E-08
0.71538242E-08
