atomic number =   94
effective nuclear charge =   94
electron count =    4
net charge =   90
basis set = approximate basis set limit (UGBS)      
exchange correlation functional = PW91PW91            
cutoff radius (picometer) =  300
number of shells =   50
prepared by = Thomas A. Manz      
prepared date = July 2010           
net magnetization =    0
density in atomic units:
0.12139640E+06
0.62111133E+00
0.39370250E-03
0.35998415E-04
0.84389694E-05
0.22229219E-05
0.16210876E-05
0.84640345E-06
0.64684386E-07
0.29106201E-06
0.19358031E-06
0.23368901E-07
0.13890807E-07
0.46704283E-07
0.45184414E-07
0.21194445E-07
0.36810237E-08
0.60135003E-09
0.44122994E-08
0.77838864E-08
0.78740854E-08
0.55688489E-08
0.28110605E-08
0.86599689E-09
0.75257169E-10
0.16490580E-09
0.63412309E-09
0.10715149E-08
0.12920971E-08
0.12540912E-08
0.10296910E-08
0.72262912E-09
0.42879147E-09
0.20045618E-09
0.61165045E-10
0.58858673E-11
0.10998272E-10
0.51526075E-10
0.10510597E-09
0.15307366E-09
0.18559755E-09
0.19958385E-09
0.19547335E-09
0.17717632E-09
0.14956920E-09
0.11805358E-09
0.86437267E-10
0.58081127E-10
0.34940485E-10
0.18026637E-10
