atomic number =   93
effective nuclear charge =   93
electron count =   78
net charge =   15
basis set = approximate basis set limit (UGBS)      
exchange correlation functional = PW91PW91            
cutoff radius (picometer) =  300
number of shells =   50
prepared by = Thomas A. Manz      
prepared date = July 2010           
net magnetization =    0
density in atomic units:
0.12385550E+06
0.31297250E+03
0.11335571E+03
0.41756393E+02
0.14552671E+02
0.76848216E+01
0.48987803E+01
0.29843626E+01
0.16495259E+01
0.86738205E+00
0.43262145E+00
0.20917477E+00
0.10565507E+00
0.52335840E-01
0.25941676E-01
0.12716756E-01
0.61283079E-02
0.30655751E-02
0.15160146E-02
0.75217464E-03
0.37553496E-03
0.18717704E-03
0.93524817E-04
0.46482779E-04
0.22869355E-04
0.11200641E-04
0.55188852E-05
0.28025033E-05
0.14344283E-05
0.75002060E-06
0.40749461E-06
0.22677985E-06
0.12991234E-06
0.75296882E-07
0.43791591E-07
0.25535234E-07
0.14701445E-07
0.82376843E-08
0.44269890E-08
0.23257525E-08
0.12284609E-08
0.69170791E-09
0.47520615E-09
0.41470949E-09
0.41644957E-09
0.43094309E-09
0.43488377E-09
0.42028980E-09
0.38802267E-09
0.34344100E-09
