atomic number =  102
effective nuclear charge =  102
electron count =   80
net charge =   22
basis set = approximate basis set limit (UGBS)      
exchange correlation functional = PW91PW91            
cutoff radius (picometer) =  400
number of shells =   75
prepared by = Thomas A. Manz      
prepared date = July 2010           
net magnetization =    0
density in atomic units:
0.16165702E+06
0.45363297E+03
0.17048210E+03
0.62277321E+02
0.21752035E+02
0.11937376E+02
0.73802943E+01
0.41224084E+01
0.21461165E+01
0.11205157E+01
0.60869908E+00
0.34605661E+00
0.20497270E+00
0.12731120E+00
0.81261583E-01
0.52523084E-01
0.33979174E-01
0.22035200E-01
0.14379339E-01
0.94149522E-02
0.61623557E-02
0.40213116E-02
0.26039148E-02
0.16881510E-02
0.10940206E-02
0.70768280E-03
0.45749632E-03
0.29643791E-03
0.18986082E-03
0.12142052E-03
0.78734469E-04
0.50945851E-04
0.32594831E-04
0.20787093E-04
0.13426987E-04
0.86948257E-05
0.56018484E-05
0.36430019E-05
0.23969444E-05
0.15767851E-05
0.10389244E-05
0.69501795E-06
0.46921619E-06
0.31860165E-06
0.21836712E-06
0.15079306E-06
0.10472808E-06
0.72975695E-07
0.50723855E-07
0.35222005E-07
0.24373739E-07
0.16727373E-07
0.11295895E-07
0.74786737E-08
0.48544848E-08
0.30291010E-08
0.17972238E-08
0.10084084E-08
0.53140681E-09
0.26657038E-09
0.14720648E-09
0.12309143E-09
0.15586743E-09
0.21894370E-09
0.29329195E-09
0.36574677E-09
0.42704759E-09
0.47516019E-09
0.50613369E-09
0.52034937E-09
0.51945132E-09
0.50435939E-09
0.47930443E-09
0.44428669E-09
0.40489773E-09
