atomic number =   73
effective nuclear charge =   73
electron count =   48
net charge =   25
basis set = approximate basis set limit (UGBS)      
exchange correlation functional = PW91PW91            
cutoff radius (picometer) =  400
number of shells =   75
prepared by = Thomas A. Manz      
prepared date = July 2010           
net magnetization =    0
density in atomic units:
0.58466527E+05
0.35031140E+03
0.75864082E+02
0.28745584E+02
0.19081339E+02
0.99055204E+01
0.45078249E+01
0.19722731E+01
0.90006483E+00
0.46733531E+00
0.27196306E+00
0.16852154E+00
0.10681748E+00
0.68687581E-01
0.44074163E-01
0.28004531E-01
0.17525194E-01
0.10874744E-01
0.67432979E-02
0.41778493E-02
0.25788341E-02
0.15845777E-02
0.96452725E-03
0.58863312E-03
0.35974121E-03
0.22000291E-03
0.13489029E-03
0.83192106E-04
0.50815950E-04
0.31060630E-04
0.19306046E-04
0.11976315E-04
0.73275787E-05
0.44521744E-05
0.27294182E-05
0.16659003E-05
0.10014107E-05
0.60108079E-06
0.36086996E-06
0.21312526E-06
0.12371243E-06
0.71757050E-07
0.41244569E-07
0.23392523E-07
0.13191480E-07
0.73713777E-08
0.41085992E-08
0.22953262E-08
0.12943199E-08
0.75186496E-09
0.45548645E-09
0.29057873E-09
0.19421877E-09
0.13586181E-09
0.99809994E-10
0.77072973E-10
0.63852208E-10
0.57979108E-10
0.57598426E-10
0.61327179E-10
0.67841385E-10
0.75718813E-10
0.83923153E-10
0.91546194E-10
0.97808373E-10
0.10223656E-09
0.10435557E-09
0.10458002E-09
0.10241803E-09
0.98349967E-10
0.92713164E-10
0.85668896E-10
0.77711518E-10
0.69330180E-10
0.60672231E-10
