atomic number =   98
effective nuclear charge =   98
electron count =   28
net charge =   70
basis set = approximate basis set limit (UGBS)      
exchange correlation functional = PW91PW91            
cutoff radius (picometer) =  300
number of shells =   50
prepared by = Thomas A. Manz      
prepared date = July 2010           
net magnetization =    0
density in atomic units:
0.14241045E+06
0.19758160E+03
0.64660463E+01
0.11540570E+00
0.19224604E-02
0.30524778E-04
0.27572626E-05
0.12095418E-05
0.12407864E-06
0.40312247E-06
0.27708853E-06
0.42180524E-07
0.21968095E-07
0.64664746E-07
0.63695481E-07
0.31422328E-07
0.67179458E-08
0.15266337E-08
0.62026624E-08
0.10773376E-07
0.11058185E-07
0.80229556E-08
0.42404760E-08
0.14784474E-08
0.27156860E-09
0.29698996E-09
0.88910190E-09
0.14783809E-08
0.17942039E-08
0.17623030E-08
0.14700892E-08
0.10545764E-08
0.64770977E-09
0.32376796E-09
0.11915090E-09
0.30445823E-10
0.27203746E-10
0.75903103E-10
0.14583801E-09
0.21082629E-09
0.25655450E-09
0.27777283E-09
0.27428004E-09
0.25095892E-09
0.21424836E-09
0.17140755E-09
0.12775579E-09
0.88032748E-10
0.55115142E-10
0.30547984E-10
