atomic number =   74
effective nuclear charge =   74
electron count =   48
net charge =   26
basis set = approximate basis set limit (UGBS)      
exchange correlation functional = PW91PW91            
cutoff radius (picometer) =  400
number of shells =   75
prepared by = Thomas A. Manz      
prepared date = July 2010           
net magnetization =    0
density in atomic units:
0.61062133E+05
0.35620331E+03
0.74659325E+02
0.29705954E+02
0.19386168E+02
0.97096720E+01
0.43013387E+01
0.18574113E+01
0.84769541E+00
0.44308642E+00
0.25860116E+00
0.15942645E+00
0.99826090E-01
0.63134223E-01
0.39744858E-01
0.24746640E-01
0.15164877E-01
0.92157088E-02
0.55986214E-02
0.34000487E-02
0.20572417E-02
0.12392600E-02
0.73923095E-03
0.44222156E-03
0.26498921E-03
0.15896324E-03
0.95658361E-04
0.57952831E-04
0.34790730E-04
0.20914755E-04
0.12802940E-04
0.78247976E-05
0.47159738E-05
0.28214527E-05
0.17026947E-05
0.10217401E-05
0.60236619E-06
0.35373711E-06
0.20709946E-06
0.11869565E-06
0.66424782E-07
0.36899625E-07
0.20155699E-07
0.10760429E-07
0.56510814E-08
0.29271143E-08
0.15105911E-08
0.79587104E-09
0.43845796E-09
0.26395258E-09
0.17398723E-09
0.12229315E-09
0.87574788E-10
0.62212034E-10
0.43932066E-10
0.31799941E-10
0.25918620E-10
0.25992528E-10
0.31061483E-10
0.40008399E-10
0.51477475E-10
0.63918371E-10
0.76214937E-10
0.87299723E-10
0.96478714E-10
0.10298597E-09
0.10698893E-09
0.10787240E-09
0.10639756E-09
0.10245717E-09
0.96684799E-10
0.89515104E-10
0.80827081E-10
0.71908444E-10
0.62673138E-10
