atomic number =   96
effective nuclear charge =   96
electron count =   28
net charge =   68
basis set = approximate basis set limit (UGBS)      
exchange correlation functional = PW91PW91            
cutoff radius (picometer) =  300
number of shells =   50
prepared by = Thomas A. Manz      
prepared date = July 2010           
net magnetization =    0
density in atomic units:
0.13421495E+06
0.20432730E+03
0.76253233E+01
0.15443400E+00
0.28904683E-02
0.50152623E-04
0.28854147E-05
0.11340514E-05
0.12348814E-06
0.36805940E-06
0.25885868E-06
0.42977820E-07
0.20901062E-07
0.58952860E-07
0.58736106E-07
0.29657478E-07
0.68435932E-08
0.16735034E-08
0.56806644E-08
0.98174215E-08
0.10152058E-07
0.74521083E-08
0.40173251E-08
0.14679387E-08
0.31905828E-09
0.29977948E-09
0.81484530E-09
0.13450087E-08
0.16369505E-08
0.16166096E-08
0.13578136E-08
0.98332009E-09
0.61258448E-09
0.31433267E-09
0.12312459E-09
0.37296721E-10
0.30036983E-10
0.71263759E-10
0.13316960E-09
0.19172738E-09
0.23352700E-09
0.25364033E-09
0.25127056E-09
0.23086441E-09
0.19801939E-09
0.15935001E-09
0.11966318E-09
0.83333188E-10
0.52968435E-10
0.30152054E-10
