atomic number =  105
effective nuclear charge =  105
electron count =   12
net charge =   93
basis set = approximate basis set limit (UGBS)      
exchange correlation functional = PW91PW91            
cutoff radius (picometer) =  300
number of shells =   50
prepared by = Thomas A. Manz      
prepared date = July 2010           
net magnetization =    0
density in atomic units:
0.17168422E+06
0.23408480E+02
0.36297911E+00
0.29551790E-02
0.22716336E-04
0.37684576E-05
0.31267932E-05
0.15759892E-05
0.13391332E-06
0.55492228E-06
0.36601054E-06
0.45620403E-07
0.27792103E-07
0.89269307E-07
0.86107761E-07
0.40603851E-07
0.73195299E-08
0.13588398E-08
0.85053085E-08
0.14881996E-07
0.15061524E-07
0.10689424E-07
0.54374545E-08
0.17158180E-08
0.18605206E-09
0.33674458E-09
0.12192611E-08
0.20496278E-08
0.24725164E-08
0.24035969E-08
0.19791233E-08
0.13945659E-08
0.83314899E-09
0.39483433E-09
0.12575287E-09
0.17118968E-10
0.24329330E-10
0.99928489E-10
0.20128116E-09
0.29259595E-09
0.35489822E-09
0.38223566E-09
0.37489128E-09
0.34040662E-09
0.28807551E-09
0.22801697E-09
0.16754799E-09
0.11317182E-09
0.68670521E-10
0.35995124E-10
