atomic number =   72
effective nuclear charge =   72
electron count =   54
net charge =   18
basis set = approximate basis set limit (UGBS)      
exchange correlation functional = PW91PW91            
cutoff radius (picometer) =  400
number of shells =   75
prepared by = Thomas A. Manz      
prepared date = July 2010           
net magnetization =    0
density in atomic units:
0.55943270E+05
0.34583990E+03
0.77419029E+02
0.28670979E+02
0.19203245E+02
0.10130397E+02
0.47618289E+01
0.23137896E+01
0.13209569E+01
0.91120398E+00
0.68917114E+00
0.52971923E+00
0.40159243E+00
0.30003637E+00
0.22017410E+00
0.15873475E+00
0.11247571E+00
0.78896694E-01
0.55229336E-01
0.38578033E-01
0.26873175E-01
0.18640701E-01
0.12845036E-01
0.88655520E-02
0.61254902E-02
0.42334297E-02
0.29307664E-02
0.20373957E-02
0.14055033E-02
0.97045919E-03
0.67871000E-03
0.47422500E-03
0.32834371E-03
0.22664999E-03
0.15794007E-03
0.11003098E-03
0.76139884E-04
0.52896201E-04
0.36957706E-04
0.25683486E-04
0.17765198E-04
0.12376399E-04
0.86320651E-05
0.60103926E-05
0.41943945E-05
0.29264595E-05
0.20434547E-05
0.14253575E-05
0.98955047E-06
0.68754400E-06
0.47752030E-06
0.33180009E-06
0.22972701E-06
0.15884494E-06
0.11037919E-06
0.76408305E-07
0.52801596E-07
0.36604916E-07
0.25542414E-07
0.17886951E-07
0.12586234E-07
0.89634389E-08
0.64566250E-08
0.47067035E-08
0.34822152E-08
0.26205589E-08
0.20125650E-08
0.15713973E-08
0.12469590E-08
0.10073835E-08
0.82658080E-09
0.68402473E-09
0.56935839E-09
0.47817617E-09
0.40346257E-09
