atomic number =   60
effective nuclear charge =   60
electron count =   36
net charge =   24
basis set = approximate basis set limit (UGBS)      
exchange correlation functional = PW91PW91            
cutoff radius (picometer) =  300
number of shells =   50
prepared by = Thomas A. Manz      
prepared date = July 2010           
net magnetization =    0
density in atomic units:
0.31017107E+05
0.18747758E+03
0.56945091E+02
0.13361109E+02
0.61362438E+01
0.35266895E+01
0.17823693E+01
0.82842416E+00
0.34724998E+00
0.13932182E+00
0.52780490E-01
0.19166075E-01
0.74166539E-02
0.27964157E-02
0.10495503E-02
0.38666348E-03
0.13683994E-03
0.50592080E-04
0.18252646E-04
0.66102266E-05
0.24357198E-05
0.90822380E-06
0.34519670E-06
0.13248037E-06
0.51045745E-07
0.20126658E-07
0.84353724E-08
0.40120454E-08
0.21589441E-08
0.13053493E-08
0.84648205E-09
0.54872090E-09
0.34182410E-09
0.19617476E-09
0.10191778E-09
0.50592586E-10
0.30759985E-10
0.31998997E-10
0.45056087E-10
0.61661620E-10
0.76144230E-10
0.85609450E-10
0.88557099E-10
0.85421781E-10
0.77407511E-10
0.66303990E-10
0.53650324E-10
0.41019504E-10
0.29527915E-10
0.20013919E-10
